AF3,F7,F3,FC5,T7,P7,O1,O2,P8,T8,FC6,F4,F8,AF4
4252.8026718547335,4234.88358205539,4153.842490272374,4214.33905882353,4163.593172350652,4139.4696162355995,4141.025470817121,4140.013762111848,4126.165237811856,4110.769723811703,4248.732286564431,4203.083097886625,4012.304119172961,4238.962393987945
4263.066744487678,4242.551318684673,4156.922036316472,4225.644885328451,4150.244581826504,4139.4696162355995,4139.999525291829,4156.395683222705,4147.164372014953,4126.144728007935,4254.871880979629,4204.6228992141605,4034.8651641107804,4247.701797055009
4270.764798962386,4251.288114747845,4158.965473411155,4230.7740462348365,4148.18743602655,4134.883704127566,4130.7660155642025,4146.659258411536,4153.841197222858,4140.013050278477,4264.115006637675,4207.70250186923,4051.785947814145,4254.373814450293
4271.278002594033,4248.707626459144,4161.037691309987,4233.33862668803,4166.656033875028,4141.033803311208,4129.740070038911,4136.397375753414,4141.006471046006,4140.526691844053,4250.756328679332,4208.215768978408,4052.8277795071335,4253.8413060196835
4257.934708171206,4237.943303883421,4157.958145265889,4228.209465781644,4183.570343785763,4154.364943160144,4138.973579766537,4156.395683222705,4149.240068970778,4139.499408712902,4244.616734264134,4201.030029449912,4045.642733348592,4241.029779659723
4238.978249027237,4228.727274280919,4146.158015564202,4212.821983062486,4177.44462073701,4152.303060196842,4139.504241245137,4157.9411474784465,4164.081302204929,4140.013050278477,4249.238297093157,4192.304488593881,4036.4099490348667,4222.579928740368
4226.661361867704,4216.414658731976,4139.480869001298,4199.999080796521,4161.0331686884865,4145.122019531548,4140.530186770428,4141.528317082475,4168.717025406271,4140.013050278477,4238.477139848936,4189.73815304799,4034.3622108796826,4209.235893949797
4212.8048638132295,4205.650336156253,4134.357885862517,4198.987696955825,4157.970307164111,4140.002861829557,4138.973579766537,4154.355670405127,4161.036946669718,4141.553974975204,4226.164216983291,4189.73815304799,4035.906995803769,4199.494122072175
4198.467237354085,4200.010126039521,4123.593865110247,4201.010464637217,4167.707463950561,4128.733604943924,4123.089112840467,4171.788507209888,4145.642194247348,4140.013050278477,4228.728003662165,4190.251420157168,4034.8651641107804,4186.682595712215
4197.954033722438,4192.305525291829,4124.111919584955,4197.434500343328,4171.273183337148,4133.8527626459145,4128.714124513619,4170.243042954146,4149.724398260471,4141.553974975204,4232.303811398489,4193.331022812237,4037.954733958953,4185.116394445716
4206.165291828794,4191.273329976349,4137.4374319066155,4198.445884184024,4169.216037537193,4162.5769253070885,4157.44059922179,4167.677572289616,4184.111777828641,4157.442620737011,4234.867598077363,4195.897358358129,4046.6845650415808,4191.287227435721
4195.388015564202,4194.88601358053,4135.393994811933,4202.057969329367,4172.32461341268,4173.846182192722,4161.013719844358,4157.446598916609,4190.754008087281,4160.010828564889,4230.752045777066,4190.251420157168,4043.0920419623103,4176.408315403983
4171.78064850843,4180.509007400626,4118.470881971466,4191.293955596247,4173.833186999313,4166.665141527428,4149.763696498055,4150.2447354848555,4164.081302204929,4141.040333409628,4215.369325703822,4186.145283283741,4028.7219496452276,4153.32250873579
4164.595797665369,4165.652767681392,4115.909390402076,4181.541325703823,4169.216037537193,4168.72702449073,4153.336817120623,4170.243042954146,4170.758127412832,4140.013050278477,4210.781496910048,4186.145283283741,4029.7278561074236,4151.286447089341
4171.267444876783,4169.228587167163,4122.0397016861225,4187.176178530557,4169.764609750515,4175.3748195620665,4159.492490272373,4181.0303834592205,4189.231830319676,4156.9289791714355,4215.909070267796,4183.578947737849,4044.097948424506,4156.423587243457
4168.701426718547,4173.320504310674,4117.952827496758,4188.187562371252,4174.381759212634,4175.908065156024,4157.935883268483,4166.16301731899,4178.472801098649,4151.792563515679,4204.102157930876,4182.552413519493,4043.0920419623103,4146.1493069352255
4155.390207522697,4170.260782482643,4108.714189364462,4181.541325703823,4174.381759212634,4165.136504158084,4155.883992217899,4164.092095216297,4163.07804867628,4129.740218966964,4183.591864499886,4176.906475318532,4033.859257648585,4130.769210498207
4148.718560311284,4165.136670023651,4106.67075226978,4182.047017624171,4168.713179674983,4154.862639047838,4153.832101167315,4173.3339714656295,4171.2770516517885,4133.335709925994,4179.476312199588,4172.315586175326,4045.1397801174944,4125.130885938811
4153.337392996108,4157.9481669337,4111.2756809338525,4183.058401464867,4168.210321812771,4163.074621194782,4155.388708171206,4165.6375594720375,4179.476054627298,4151.792563515679,4184.603885557336,4178.4462766460665,4059.473947203784,4124.629701533531
4154.87700389105,4154.372347447928,4111.793735408561,4174.85896818494,4176.393190661478,4171.286603341727,4150.258980544747,4158.466605325399,4169.754873884183,4142.581258106356,4184.603885557336,4182.039146410315,4061.0187321278704,4121.5286230258635
4152.310985732814,4158.98036224918,4109.750298313878,4176.917856717785,4185.124631723506,4168.72702449073,4143.077361867705,4163.0720888075075,4161.521275959411,4124.603803311208,4180.522067292287,4179.472810864423,4068.7067315175095,4121.5286230258635
4152.310985732814,4165.136670023651,4109.23224383917,4183.058401464867,4191.296069123369,4168.193778896773,4150.258980544747,4158.961153887236,4167.679176928358,4132.822068360418,4173.842728313115,4175.3951888303955,4078.9813475242236,4123.094824292362
4147.692153047989,4156.915971618219,4105.6346433203635,4172.800079652095,4188.736065461204,4170.255661860076,4156.414653696498,4153.335663996338,4167.160252689402,4140.526691844053,4167.703133897917,4173.342120393682,4074.8858712138554,4114.887929655909
4139.480894941634,4138.4470482948045,4103.591206225681,4162.577878690777,4182.564628061341,4167.162837415122,4154.858046692607,4164.617553063249,4158.442325474937,4130.25386053254,4168.2091444266425,4175.908455939574,4071.796301365682,4111.285666742961
4137.941284046692,4137.930950637065,4105.6346433203635,4168.21273151751,4185.627489585717,4170.255661860076,4161.544381322958,4174.353977874418,4168.717025406271,4129.226577401389,4170.266920576791,4179.472810864423,4089.7589167620354,4120.526254215304
4142.560116731517,4152.824054474709,4106.152697795072,4170.235499198901,4187.18177752346,4173.846182192722,4170.2472295719845,4163.0720888075075,4172.799229419394,4139.499408712902,4169.727176012818,4183.578947737849,4107.6856069275955,4125.130885938811
4147.692153047989,4157.432069275959,4110.2683527885865,4169.224115358206,4183.570343785763,4169.7579659723815,4169.221284046693,4165.1430109102,4159.480173952849,4146.656147859922,4173.33671778439,4185.6320161745625,4103.590130617227,4122.061131456473
4147.178949416342,4147.699942015717,4119.99626459144,4170.235499198901,4185.124631723506,4171.78429922942,4172.829782101167,4186.655873350118,4167.160252689402,4138.47212558175,4169.727176012818,4187.171817502098,4094.357346303502,4122.061131456473
4138.454487678339,4136.935619439994,4116.916718547342,4158.460101625086,4184.621773861295,4165.634200045778,4167.169392996109,4182.575847714961,4170.758127412832,4116.933422598611,4153.838445410849,4184.605481956207,4085.627515220874,4113.32172838941
4132.80924773022,4135.387326466774,4108.196134889754,4149.7549764248115,4174.381759212634,4149.245785458153,4148.737750972763,4157.9411474784465,4148.721144731822,4109.742440680552,4140.513501487754,4181.012612191958,4083.0768238345922,4103.579956511788
4133.322451361867,4136.4195217822535,4116.398664072633,4155.895521171893,4168.713179674983,4158.986404974442,4147.181143968872,4148.730180514229,4141.525395284962,4121.0425551232165,4139.501480430305,4185.118749065385,4087.6752533760587,4105.647342183565
4135.375265888456,4132.806838178073,4125.119247730221,4157.954409704738,4173.833186999313,4181.027222858015,4156.909937743191,4152.8102061493855,4154.87904570077,4119.50163042649,4144.0893092240785,4186.145283283741,4087.6752533760587,4107.182219424734
4142.04691309987,4139.479243610284,4125.119247730221,4160.0132982375835,4181.010340123597,4181.027222858015,4154.858046692607,4156.921141069657,4166.156999160754,4123.062878614481,4151.7806692607,4188.198351720454,4092.3096081483177,4109.7507895017925
4151.28457846952,4155.8837763027395,4132.314448767835,4169.224115358206,4185.124631723506,4166.167445639735,4151.284926070039,4163.0720888075075,4165.638074921797,4148.710714122225,4164.093592126344,4198.976961013199,4115.912484779125,4122.562315861753
4153.337392996108,4153.8562497901885,4136.919377431907,4172.294387731747,4185.124631723506,4156.391276417182,4152.310871595331,4169.223036545358,4154.360121461814,4149.2243556878,4164.59960265507,4201.54329655909,4128.198913710231,4126.1645787747
4149.744967574578,4145.635551384757,4133.321776913101,4175.906472877089,4184.621773861295,4160.515042343786,4154.858046692607,4169.223036545358,4159.480173952849,4128.7129358358125,4156.402232089723,4192.817755703059,4118.463176165407,4116.9239913023575
4152.310985732814,4153.8562497901885,4136.919377431907,4181.035633783475,4187.18177752346,4173.348486305028,4167.169392996109,4167.677572289616,4180.51390310521,4134.87663462272,4156.402232089723,4193.331022812237,4120.0079610894945,4116.9239913023575
4150.771374837873,4158.46426459144,4136.401322957199,4172.294387731747,4183.067485923552,4172.815240711071,4173.855727626459,4167.183023727779,4174.874926375219,4156.9289791714355,4157.4479871824215,4196.410625467307,4126.654128786145,4121.5286230258635
4144.099727626459,4147.699942015717,4128.716848249028,4164.09495445182,4174.884617074845,4162.5769253070885,4159.492490272373,4170.7685008010985,4159.999098191805,4155.388054474708,4153.838445410849,4194.357557030594,4122.558652475776,4122.061131456473
4144.099727626459,4140.511438925765,4130.242230869002,4163.589262531472,4177.44462073701,4165.634200045778,4148.2070894941635,4172.31396505684,4175.393850614176,4141.040333409628,4155.390211032272,4194.870824139773,4122.558652475776,4123.094824292362
4144.099727626459,4143.091927214466,4129.752957198444,4162.577878690777,4180.004624399176,4171.286603341727,4154.858046692607,4170.243042954146,4185.633955596246,4142.581258106356,4153.332434882124,4193.844289921416,4121.01386755169,4118.991376974136
4145.126134889753,4151.791859159228,4127.191465629054,4166.153842984665,4177.44462073701,4169.2247203784245,4164.622217898833,4170.7685008010985,4175.393850614176,4138.9857671473255,4142.065267109178,4190.251420157168,4117.421344472419,4110.251973907072
4148.205356679637,4154.888445105669,4132.832503242543,4170.7773119707035,4184.1189159990845,4170.255661860076,4170.2472295719845,4166.657565880827,4171.7959758907455,4130.25386053254,4144.0893092240785,4191.791221484703,4119.505007858396,4108.215912260624
4145.6393385214005,4152.824054474709,4136.919377431907,4168.718423437858,4189.741781185626,4174.343878080415,4171.803836575876,4164.092095216297,4170.758127412832,4149.2243556878,4158.966018768597,4196.410625467307,4123.6004841687645,4117.957684138247
4145.6393385214005,4161.00788876173,4136.919377431907,4176.917856717785,4182.06177019913,4185.648684672313,4170.2472295719845,4171.293958648051,4174.874926375219,4170.249417105363,4169.221165484092,4199.490228122377,4132.294390020599,4127.1982716105895
4153.850596627755,4173.320504310674,4135.883268482491,4188.187562371252,4185.627489585717,4188.705959411002,4172.299120622568,4174.353977874418,4186.152879835202,4157.956262302587,4167.163389333944,4199.490228122377,4140.521267872129,4125.632070344091
4154.87700389105,4172.325173113603,4131.7963942931265,4186.670486610209,4201.033225909819,4175.908065156024,4172.299120622568,4171.293958648051,4185.11503135729,4147.169789425498,4157.953997711147,4194.357557030594,4133.336221713588,4115.389114061189
4144.099727626459,4165.652767681392,4127.680739299612,4179.988129091325,4204.598945296406,4166.167445639735,4158.961828793775,4168.2030301365685,4177.953876859693,4162.065394827191,4150.76864820325,4189.73815304799,4123.6004841687645,4107.683403830014
4143.073320363164,4164.620572365911,4125.637302204929,4179.482437170977,4195.913218585489,4168.72702449073,4151.780210116732,4164.617553063249,4182.555005111772,4170.249417105363,4157.953997711147,4193.331022812237,4133.336221713588,4112.319359578851
4151.797782101166,4167.680294193942,4128.716848249028,4183.600214236668,4189.741781185626,4168.193778896773,4157.935883268483,4171.293958648051,4187.190728313115,4158.469903868162,4168.715154955367,4196.923892576486,4147.706314030671,4119.492561379416
4157.443022049286,4168.712489509423,4136.401322957199,4185.62298191806,4191.296069123369,4165.136504158084,4154.858046692607,4188.7267954528115,4184.596107118334,4153.8471297779815,4169.221165484092,4202.056563668269,4151.298837109941,4125.632070344091
4161.548651102464,4169.228587167163,4139.480869001298,4185.62298191806,4189.741781185626,4173.846182192722,4151.780210116732,4190.241350423438,4183.592853589685,4160.010828564889,4167.703133897917,4203.596364995804,4153.849528496224,4132.304087739376
4166.648612191958,4175.900992599374,4136.401322957199,4185.62298191806,4188.736065461204,4185.115439078356,4170.777891050584,4176.919448538949,4185.633955596246,4166.653926146334,4173.33671778439,4200.0034952315555,4156.939098344396,4137.4412278934915
4165.622204928663,4185.117022201877,4137.4374319066155,4187.681870450904,4197.970364385443,4187.675017929351,4188.714249027237,4176.919448538949,4191.7918565651935,4169.735775539788,4174.34873884184,4200.516762340734,4156.939098344396,4138.97610513466
4160.009040207522,4184.600924544136,4136.919377431907,4186.164794689861,4205.650375371938,4185.115439078356,4182.558575875487,4182.575847714961,4188.193981841764,4169.222133974212,4169.727176012818,4198.976961013199,4156.939098344396,4135.9063506523225
4163.088261997405,4179.992909742886,4133.321776913101,4184.105906157016,4201.033225909819,4183.586801709011,4170.777891050584,4176.919448538949,4179.476054627298,4166.140284580758,4179.982322728313,4199.490228122377,4159.489789730678,4136.940043488212
4168.1882230869,4182.573398031586,4136.919377431907,4192.305339436943,4197.970364385443,4186.679626153964,4170.777891050584,4180.504925612268,4192.8297050431065,4177.954040588998,4187.707416800183,4203.083097886625,4159.489789730678,4140.00979797055
4166.648612191958,4189.761901121538,4137.955486381324,4199.493388876173,4205.147517509728,4182.5558602273595,4170.777891050584,4185.635866941329,4207.70553322652,4191.788120088502,4174.8547493705655,4196.410625467307,4156.939098344396,4135.9063506523225
4165.622204928663,4183.089495689326,4134.357885862517,4191.799647516595,4202.0389416342405,4169.7579659723815,4166.674108949416,4165.6375594720375,4187.675057602807,4162.579036392767,4168.2091444266425,4189.224885938811,4150.257005416953,4131.270394903487
4167.675019455252,4168.712489509423,4135.883268482491,4184.105906157016,4189.741781185626,4166.167445639735,4167.700054474708,4155.901134660869,4162.559124437324,4133.849351491569,4167.163389333944,4190.764687266346,4137.934651255055,4127.699456015869
4168.701426718547,4172.804406652934,4138.962814526589,4190.752142824445,4185.124631723506,4180.493977264058,4168.726000000001,4173.3339714656295,4170.239203173876,4163.092677958342,4156.908242618448,4189.73815304799,4132.294390020599,4124.097193102922
4167.675019455252,4191.273329976349,4136.919377431907,4200.504772716869,4199.9817958342865,4188.705959411002,4168.195338521401,4175.373984283207,4187.190728313115,4172.817624933242,4153.838445410849,4189.73815304799,4135.383959868773,4126.1645787747
4169.727833981841,4202.037652552071,4137.955486381324,4201.552277409019,4216.39324788281,4182.5558602273595,4171.273175097276,4165.1430109102,4186.152879835202,4146.656147859922,4167.703133897917,4194.357557030594,4137.431698023956,4134.3714734111545
4171.267444876783,4197.945735408561,4141.524306095979,4200.504772716869,4218.450393682765,4182.058164339666,4171.803836575876,4170.7685008010985,4183.073929350729,4166.653926146334,4175.900504463264,4196.410625467307,4140.018314641032,4138.474920729381
4169.214630350194,4188.729705806058,4139.998923476006,4200.504772716869,4213.330386358434,4189.239205004959,4166.674108949416,4173.859429312581,4187.675057602807,4190.247195391776,4171.784952162966,4193.844289921416,4141.024221103227,4135.9063506523225
4170.754241245136,4191.273329976349,4137.4374319066155,4204.622549782559,4210.267524834057,4192.296479743649,4169.221284046693,4167.677572289616,4184.596107118334,4164.119961089494,4167.703133897917,4192.304488593881,4140.521267872129,4136.940043488212
4174.859870298314,4203.585945525292,4139.998923476006,4207.187130235752,4215.8903900206,4186.146380560007,4174.351011673152,4165.6375594720375,4178.957130388342,4155.901696040284,4168.715154955367,4195.38409124895,4138.473529716945,4142.578368047608
4170.754241245136,4200.010126039521,4136.401322957199,4201.010464637217,4214.884674296177,4179.498585488671,4166.143447470818,4168.2030301365685,4179.994978866254,4174.8721911955445,4166.657378805218,4192.817755703059,4131.791436789502,4134.3714734111545
4165.622204928663,4187.181412832838,4132.314448767835,4195.881303730831,4203.593229571984,4183.586801709011,4164.091556420233,4175.8994421301595,4185.633955596246,4170.249417105363,4162.035815976196,4187.171817502098,4132.294390020599,4122.061131456473
4169.214630350194,4190.757232318609,4144.114578469521,4200.504772716869,4203.593229571984,4192.829725337607,4172.829782101167,4175.373984283207,4195.389731288624,4164.119961089494,4165.139347219043,4190.251420157168,4145.1196974135955,4128.733148851758
4171.78064850843,4192.305525291829,4150.244889753567,4203.069353170063,4216.39324788281,4187.177322041658,4168.195338521401,4166.657565880827,4192.3107808041505,4170.249417105363,4165.139347219043,4194.357557030594,4141.5271743343255,4134.3714734111545
4169.727833981841,4183.089495689326,4144.114578469521,4195.375611810483,4212.324670634012,4170.255661860076,4157.935883268483,4163.0720888075075,4170.239203173876,4167.167567711909,4152.826424353399,4192.304488593881,4123.061605706874,4125.130885938811
4169.214630350194,4182.057300373846,4145.639961089494,4190.752142824445,4201.033225909819,4165.136504158084,4164.091556420233,4164.092095216297,4157.957996185244,4157.956262302587,4151.7806692607,4192.817755703059,4126.151175555046,4121.027438620584
4169.727833981841,4187.181412832838,4150.762944228275,4195.881303730831,4210.267524834057,4178.46764400702,4178.454793774319,4165.1430109102,4172.3149001297015,4149.2243556878,4165.645357747769,4199.490228122377,4140.018314641032,4127.699456015869
4171.78064850843,4189.761901121538,4148.719507133593,4198.987696955825,4223.067543144884,4196.9179415579465,4186.167073929962,4174.353977874418,4190.235083848325,4158.469903868162,4172.8307072556645,4201.54329655909,4141.5271743343255,4134.3714734111545
4173.833463035019,4187.181412832838,4151.280998702983,4193.316723277639,4222.564685282673,4201.539403372244,4186.662357976654,4186.655873350118,4191.7918565651935,4182.063173113604,4170.772931105516,4200.0034952315555,4138.473529716945,4134.3714734111545
4173.833463035019,4187.181412832838,4151.280998702983,4193.316723277639,4222.564685282673,4201.539403372244,4186.662357976654,4186.655873350118,4191.7918565651935,4182.063173113604,4170.772931105516,4200.0034952315555,4138.473529716945,4134.3714734111545
4170.2410376134885,4183.605593347067,4155.885927367056,4188.729375143053,4211.776098420691,4189.7369008926535,4179.480739299611,4182.050389868009,4183.592853589685,4179.494965285725,4161.529805447471,4204.109632104982,4135.88691309987,4130.769210498207
4168.701426718547,4184.600924544136,4155.396653696498,4193.85853604944,4202.0389416342405,4181.027222858015,4171.803836575876,4169.748494392309,4181.551751583123,4160.524470130465,4153.838445410849,4205.649433432517,4134.8810066376745,4130.769210498207
4170.754241245136,4186.149217517357,4156.922036316472,4202.057969329367,4208.210379034103,4182.058164339666,4172.299120622568,4168.728487983521,4188.71290608072,4164.119961089494,4161.529805447471,4206.675967650874,4136.928744792859,4136.940043488212
4172.807055771725,4185.633119859617,4160.001582360571,4199.999080796521,4218.450393682765,4182.5558602273595,4172.299120622568,4173.3339714656295,4185.11503135729,4174.358549629968,4166.1513682764935,4208.729036087587,4137.431698023956,4138.97610513466
4176.399481193255,4184.600924544136,4160.519636835279,4190.246450904097,4214.381816433966,4179.498585488671,4163.0656108949415,4166.657565880827,4171.2770516517885,4162.065394827191,4158.460008239872,4204.109632104982,4135.383959868773,4136.407535057602
4182.557924773021,4183.089495689326,4164.606511024644,4190.246450904097,4207.158948958571,4179.498585488671,4161.013719844358,4157.9411474784465,4163.07804867628,4146.656147859922,4158.460008239872,4203.083097886625,4139.479436179141,4137.942412298771
4187.689961089493,4186.665315175097,4169.7294941634245,4199.493388876173,4212.324670634012,4191.265538261998,4176.402902723736,4165.6375594720375,4170.239203173876,4153.333488212405,4168.715154955367,4209.727055466545,4142.569006027314,4142.578368047608
4182.557924773021,4192.305525291829,4167.686057068742,4200.504772716869,4220.507539482719,4200.0107660029,4187.6883035019455,4182.575847714961,4187.190728313115,4170.249417105363,4169.221165484092,4210.2403225757225,4138.473529716945,4141.043490806439
4171.267444876783,4189.761901121538,4158.447418936446,4195.375611810483,4222.061827420462,4191.798783855956,4185.14112840467,4187.18133119707,4201.547632257572,4173.844908064393,4163.081571068895,4207.1892347600515,4135.88691309987,4131.270394903487
4170.2410376134885,4192.821622949569,4154.87859922179,4198.445884184024,4220.507539482719,4185.648684672313,4180.01140077821,4183.070396276798,4203.0698100251775,4168.1948508430605,4164.59960265507,4208.729036087587,4136.928744792859,4131.270394903487
4175.373073929961,4202.037652552071,4155.396653696498,4203.069353170063,4223.570401007095,4186.146380560007,4175.376957198444,4182.050389868009,4188.193981841764,4165.147244220645,4169.221165484092,4210.2403225757225,4137.431698023956,4138.97610513466
4175.373073929961,4198.977930724041,4157.958145265889,4199.493388876173,4222.564685282673,4185.648684672313,4173.855727626459,4181.0303834592205,4179.476054627298,4171.790341802091,4171.278941634241,4207.70250186923,4141.5271743343255,4138.97610513466
4179.478702983139,4200.010126039521,4165.64261997406,4202.057969329367,4222.564685282673,4193.860666819257,4183.584521400779,4183.070396276798,4186.152879835202,4187.165345998322,4174.34873884184,4211.780123903258,4153.3465752651255,4138.474920729381
4186.150350194552,4202.553750209811,4170.247548638133,4205.633933623255,4226.678976882581,4198.979824521249,4188.714249027237,4189.221344014649,4194.351882810712,4191.274478522927,4180.522067292287,4216.399527885862,4159.489789730678,4141.043490806439
4185.6371465629045,4186.665315175097,4171.801712062257,4199.999080796521,4221.0103973449295,4191.798783855956,4184.115182879377,4191.786814679179,4201.547632257572,4185.145022507058,4186.155651178759,4216.399527885862,4155.39431342031,4138.474920729381
4192.3087937743185,4188.729705806058,4179.4861867704285,4206.139625543603,4217.947535820554,4192.829725337607,4185.14112840467,4186.1613247882815,4204.626582742046,4184.631380941481,4184.603885557336,4217.939329213397,4154.352481727321,4138.97610513466
4199.49364461738,4215.382463416495,4182.047678339819,4218.45683588922,4230.79326848249,4205.627619592585,4193.843976653697,4189.221344014649,4205.110912031739,4182.576814679179,4178.464291142138,4217.4260621042185,4155.897266651407,4144.113245288777
4189.742775616082,4214.350268101015,4171.283657587549,4209.751710688945,4237.970421606775,4204.596678110934,4194.869922178988,4189.221344014649,4198.468681773098,4174.358549629968,4169.727176012818,4209.727055466545,4147.706314030671,4137.4412278934915
4178.452295719844,4193.853818265049,4165.124565499352,4193.85853604944,4229.2389805447465,4184.617743190662,4182.558575875487,4165.6375594720375,4177.434952620737,4166.140284580758,4155.896221560998,4205.649433432517,4129.743698634317,4123.596008697642
4178.452295719844,4194.36991592279,4167.168002594034,4197.434500343328,4225.1246889448385,4178.965339894713,4176.933564202335,4153.86112184329,4172.3149001297015,4162.065394827191,4148.710872053101,4205.649433432517,4120.0079610894945,4115.890298466468
4185.6371465629045,4209.2261556420235,4169.7294941634245,4212.821983062486,4229.741838406958,4197.948883039598,4183.584521400779,4175.8994421301595,4197.430833295186,4176.926757457847,4158.966018768597,4208.215768978408,4130.2466518654155,4121.027438620584
4194.874811932555,4217.962951705196,4174.363203631648,4220.010032501717,4234.861845731289,4210.782327000839,4193.348692607004,4197.443213855192,4212.306661478599,4189.219912260624,4171.278941634241,4212.806658121614,4142.569006027314,4134.872657816433
4193.335201037613,4216.9307563897155,4172.809040207523,4216.903639276723,4233.856130006866,4209.751385519189,4203.077486381323,4197.937762417029,4200.509783779659,4172.817624933242,4170.266920576791,4210.753589684901,4140.018314641032,4135.9063506523225
4184.097535667963,4211.806643930724,4162.045019455253,4211.7744783703365,4231.798984206912,4208.18719844358,4200.530311284047,4198.9886781109335,4199.471935301747,4173.331266498817,4168.715154955367,4206.162700541695,4136.928744792859,4127.699456015869
4183.584332036316,4213.318072785534,4156.403981841764,4215.892255436027,4241.033283131151,4200.508461890593,4184.115182879377,4202.048697337301,4216.388865491722,4206.683725490196,4173.842728313115,4204.109632104982,4141.024221103227,4125.632070344091
4185.6371465629045,4216.414658731976,4159.483527885863,4218.962527809568,4247.159006179903,4204.0989822232405,4189.740194552529,4198.9886781109335,4219.986740215152,4197.438177309835,4171.278941634241,4205.649433432517,4138.473529716945,4127.699456015869
4184.61073929961,4215.898561074236,4164.606511024644,4215.892255436027,4245.65043259327,4217.963367666133,4211.285050583658,4203.06870374609,4213.3445099565115,4163.6063195239185,4168.715154955367,4209.242303196765,4135.383959868773,4131.270394903487
4184.61073929961,4217.446854047455,4165.64261997406,4214.880871595331,4244.599002517738,4208.720444037538,4205.1293774319065,4203.06870374609,4210.74988876173,4182.063173113604,4173.33671778439,4212.293391012436,4140.521267872129,4133.337780575265
4184.61073929961,4215.382463416495,4165.64261997406,4213.833366903182,4238.473279468985,4201.539403372244,4196.921813229572,4196.91775600824,4216.388865491722,4212.29953994049,4174.8547493705655,4212.806658121614,4141.024221103227,4132.836596169986
4181.01831387808,4211.806643930724,4165.64261997406,4212.821983062486,4231.296126344701,4216.932426184482,4208.207214007783,4196.91775600824,4216.388865491722,4200.006385137713,4170.772931105516,4209.727055466545,4136.928744792859,4128.200640421149
4181.01831387808,4211.806643930724,4166.649948119326,4212.821983062486,4239.478995193408,4213.839601739529,4210.259105058366,4202.574155184253,4205.110912031739,4181.5495315480275,4169.221165484092,4212.806658121614,4134.8810066376745,4129.234333257038
4191.795590142671,4212.322741588464,4174.363203631648,4214.880871595331,4244.0961446555275,4195.389304188602,4195.400583657588,4201.028690928511,4196.911909056229,4187.165345998322,4172.290962691692,4222.558733196002,4137.934651255055,4137.942412298771
4202.059662775616,4212.322741588464,4182.565732814527,4215.386563515679,4236.918991531243,4198.446578927291,4189.244910505837,4195.372291752498,4206.148760509651,4189.219912260624,4173.33671778439,4229.23120561532,4139.479436179141,4145.648122529946
4204.112477302205,4218.958282902267,4192.293644617381,4216.397947356375,4238.976137331197,4207.689502555887,4195.89586770428,4199.48322667277,4222.5467664606695,4178.98132372015,4173.33671778439,4231.7975411612115,4133.8391749446855,4145.648122529946
4210.752049286641,4215.382463416495,4211.807029831388,4215.892255436027,4240.53042526894,4203.601286335546,4197.452474708171,4199.48322667277,4206.667684748607,4173.331266498817,4171.278941634241,4238.47001358053,4124.103437399863,4140.510982375829
4214.8576783398175,4199.4940283817805,4227.1759792477305,4210.257402609293,4232.301842069123,4197.948883039598,4185.636412451362,4183.5958541237505,4175.878179903868,4172.303983367666,4165.645357747769,4249.733375143053,4119.505007858396,4140.00979797055
4209.725642023346,4204.102043183032,4226.139870298314,4208.704205996796,4228.187550469214,4198.446578927291,4177.959509727627,4173.3339714656295,4186.152879835202,4181.035889982452,4164.59960265507,4250.75990936141,4120.0079610894945,4140.510982375829
4205.652088197146,4221.022673533226,4214.368521400778,4215.892255436027,4231.296126344701,4204.596678110934,4193.348692607004,4185.635866941329,4210.265559472037,4201.033668268864,4171.278941634241,4237.956746471351,4119.505007858396,4139.47728953994
4200.520051880674,4214.866365758755,4199.488845654994,4215.386563515679,4234.358987869077,4198.979824521249,4202.582202334631,4191.786814679179,4195.908655527581,4196.4108941786835,4169.727176012818,4228.204671396963,4116.918391241321,4140.00979797055
4193.84840466926,4203.585945525292,4186.163333333334,4203.57504509041,4232.804699931334,4188.208263523308,4189.740194552529,4181.0303834592205,4173.837077897307,4166.140284580758,4154.344455939574,4222.045466086824,4110.775176775768,4136.407535057602
4192.3087937743185,4210.774448615244,4182.565732814527,4200.504772716869,4229.741838406958,4200.0107660029,4193.348692607004,4188.7267954528115,4191.272932326237,4167.681209277485,4153.332434882124,4219.479130540932,4103.087177386129,4134.872657816433
4195.388015564202,4219.4743805600065,4183.083787289235,4212.316291142139,4231.798984206912,4218.958759441521,4216.910062256809,4209.745109330892,4214.866687724117,4189.7335538262,4167.163389333944,4225.125068741893,4109.73334508278,4143.079552452888
4202.572866407263,4216.414658731976,4182.047678339819,4217.445452048524,4233.353272144655,4220.522946517129,4218.466669260701,4201.028690928511,4208.189862516212,4183.090456244755,4174.34873884184,4225.125068741893,4128.701866941329,4153.32250873579
4214.8576783398175,4221.538771190967,4184.091115434501,4216.397947356375,4227.1818347447925,4212.310964370185,4200.530311284047,4182.050389868009,4197.430833295186,4182.576814679179,4179.476312199588,4223.585267414359,4138.473529716945,4162.563096208133
4219.98971465629,4233.33528908217,4187.1706614786,4223.585996795606,4231.296126344701,4207.689502555887,4198.973704280156,4194.35228534371,4203.0698100251775,4203.601876096742,4182.579843442435,4226.15160296025,4137.934651255055,4169.736298008697
4215.370881971465,4231.786996108949,4185.127224383918,4226.656269169147,4238.976137331197,4203.601286335546,4200.530311284047,4209.21965148394,4208.708786755169,4196.4108941786835,4179.982322728313,4225.638335851072,4140.018314641032,4170.769990844587
4211.265252918288,4222.054868848707,4181.529623865111,4215.892255436027,4235.913275806821,4196.9179415579465,4189.244910505837,4202.048697337301,4210.74988876173,4177.954040588998,4182.040098878462,4224.098534523537,4140.018314641032,4170.769990844587
4215.370881971465,4227.178981307698,4184.609169909209,4215.386563515679,4233.353272144655,4200.0107660029,4191.792085603113,4199.48322667277,4215.385611963073,4193.842686350805,4190.271203479057,4229.744472724498,4141.024221103227,4179.47806988632
4219.98971465629,4231.786996108949,4187.1706614786,4223.080304875258,4232.804699931334,4209.751385519189,4203.077486381323,4199.48322667277,4213.828839246204,4209.217690547036,4192.295245593958,4230.257739833676,4141.5271743343255,4183.080332799267
4208.1860311284045,4216.414658731976,4175.888586251622,4215.386563515679,4232.804699931334,4208.18719844358,4199.504365758755,4186.1613247882815,4201.547632257572,4194.356327916381,4179.982322728313,4213.833192339971,4127.695960479134,4169.235113603418
4196.9276264591435,4211.806643930724,4165.64261997406,4207.6928221561,4234.861845731289,4205.129923704891,4206.685984435798,4180.010377050431,4195.389731288624,4191.274478522927,4173.33671778439,4211.780123903258,4121.01386755169,4164.630481879911
4200.520051880674,4228.211176623178,4169.7294941634245,4215.386563515679,4232.301842069123,4208.18719844358,4217.440723735409,4194.35228534371,4198.95301106279,4207.197367055772,4183.085853971161,4221.018931868467,4129.24074540322,4173.8397453269245
4201.033255512321,4231.270898451209,4166.649948119326,4217.445452048524,4230.79326848249,4198.979824521249,4201.556256809338,4202.574155184253,4203.0698100251775,4195.897252613107,4185.649640650035,4214.859726558328,4125.648222323949,4172.837376516365
4196.9276264591435,4222.054868848707,4154.87859922179,4213.327674982834,4233.353272144655,4196.420245670253,4199.504365758755,4197.937762417029,4201.028708018615,4175.38583276112,4176.406514991989,4209.242303196765,4117.421344472419,4166.666543526359
4198.467237354085,4223.087064164187,4153.3244357976655,4213.833366903182,4234.861845731289,4211.777718776227,4218.961953307393,4197.443213855192,4193.832958571756,4191.274478522927,4175.900504463264,4214.346459449149,4124.103437399863,4168.733929198138
4200.520051880674,4230.238703135729,4155.885927367056,4218.962527809568,4231.296126344701,4211.2800228885335,4207.7119299610895,4197.443213855192,4196.911909056229,4214.867747768368,4181.028077821012,4211.780123903258,4127.193007248035,4170.769990844587
4200.006848249027,4233.33528908217,4154.87859922179,4224.091688715954,4232.301842069123,4205.129923704891,4192.818031128405,4193.8577367818725,4203.588734264134,4198.979102006561,4172.8307072556645,4207.70250186923,4122.055699244678,4171.271175249866
4203.08607003891,4236.395010910201,4156.403981841764,4223.585996795606,4241.536140993362,4221.020642404822,4209.233159533074,4194.35228534371,4199.990859540703,4185.145022507058,4170.266920576791,4210.2403225757225,4122.055699244678,4178.475701075761
4202.059662775616,4237.427206225681,4151.280998702983,4217.445452048524,4242.587571068894,4221.55388799878,4210.754389105058,4203.06870374609,4205.110912031739,4198.979102006561,4182.579843442435,4209.242303196765,4125.145269092851,4177.943192645152
4191.795590142671,4231.786996108949,4139.480869001298,4213.833366903182,4235.364703593499,4201.041707484551,4193.843976653697,4206.159632257572,4218.983486686503,4196.4108941786835,4183.591864499886,4206.675967650874,4122.558652475776,4168.733929198138
4181.531517509728,4226.6628836499585,4135.393994811933,4214.33905882353,4236.416133669031,4200.508461890593,4202.582202334631,4188.7267954528115,4217.426713969634,4175.899474326696,4173.33671778439,4205.136166323338,4114.870653086137,4166.16535912108
4185.123942931257,4228.211176623178,4141.035032425422,4216.397947356375,4245.65043259327,4218.4610635538265,4219.987898832685,4177.444906385901,4214.347763485161,4182.576814679179,4172.8307072556645,4207.1892347600515,4109.230391851682,4172.837376516365
4194.874811932555,4230.754800793469,4142.5604150453955,4218.45683588922,4249.764724193179,4217.430122072175,4215.3888326848255,4194.877743190662,4223.5846149385825,4202.060951400015,4176.912525520715,4209.727055466545,4109.230391851682,4176.940823834592
4190.769182879377,4223.603161821928,4138.962814526589,4216.397947356375,4243.593286793316,4205.129923704891,4206.155322957198,4203.06870374609,4205.110912031739,4201.033668268864,4175.394493934539,4208.215768978408,4114.870653086137,4173.338560921645
4184.097535667963,4215.382463416495,4138.962814526589,4213.833366903182,4231.798984206912,4207.191806668193,4207.7119299610895,4182.050389868009,4169.235949645227,4195.383611047532,4177.958280613413,4208.215768978408,4120.510914320592,4175.374622568093
4190.25597924773,4220.506575875486,4142.042360570687,4218.45683588922,4235.364703593499,4217.430122072175,4214.362887159533,4186.1613247882815,4181.032827344167,4193.32904478523,4181.5340883497365,4211.780123903258,4116.415438010224,4183.080332799267
4193.335201037613,4219.4743805600065,4142.042360570687,4214.33905882353,4250.2675820553895,4219.989700923172,4215.3888326848255,4204.614168001831,4216.388865491722,4186.685947203784,4175.900504463264,4214.346459449149,4109.230391851682,4186.150087281605
4185.123942931257,4209.742253299763,4137.4374319066155,4203.069353170063,4245.14757473106,4214.87054322118,4206.155322957198,4185.141318379492,4211.787737239642,4182.063173113604,4172.290962691692,4211.780123903258,4109.73334508278,4182.579148393987
4182.557924773021,4211.290546272984,4135.883268482491,4203.57504509041,4237.970421606775,4205.627619592585,4196.42652918288,4170.243042954146,4194.351882810712,4182.576814679179,4172.8307072556645,4210.2403225757225,4110.272223544671,4176.940823834592
4187.176757457846,4216.414658731976,4139.480869001298,4206.139625543603,4243.593286793316,4201.539403372244,4196.42652918288,4187.18133119707,4205.110912031739,4187.678987563897,4173.842728313115,4210.753589684901,4108.188560158694,4174.873438162814
4179.478702983139,4206.6825314717325,4136.919377431907,4197.434500343328,4239.981853055619,4202.570344853895,4201.02559533074,4188.7267954528115,4195.389731288624,4184.117739375906,4170.266920576791,4206.675967650874,4107.6856069275955,4170.268806439307
4173.833463035019,4200.526223697261,4133.839831387809,4195.375611810483,4231.296126344701,4199.477520408942,4200.530311284047,4173.859429312581,4163.596972915236,4170.763058670939,4165.645357747769,4206.162700541695,4103.087177386129,4167.700236362249
4182.557924773021,4207.677862668803,4137.955486381324,4206.139625543603,4232.301842069123,4197.451187151904,4196.42652918288,4179.484919203479,4172.799229419394,4171.276700236514,4166.657378805218,4206.675967650874,4095.902131227588,4171.271175249866
4190.25597924773,4212.801975127794,4142.042360570687,4210.763094529641,4238.473279468985,4206.160865186542,4201.02559533074,4196.423207446403,4204.626582742046,4180.522248416876,4165.139347219043,4205.649433432517,4094.357346303502,4173.8397453269245
4188.716368352788,4215.382463416495,4141.035032425422,4211.7744783703365,4245.65043259327,4216.399180590524,4209.233159533074,4193.8577367818725,4204.626582742046,4180.008606851301,4162.035815976196,4206.675967650874,4103.087177386129,4169.736298008697
4186.150350194552,4219.4743805600065,4141.524306095979,4211.7744783703365,4252.827585717555,4219.492005035478,4208.207214007783,4185.635866941329,4194.870807049668,4182.063173113604,4167.703133897917,4208.215768978408,4107.6856069275955,4168.201420767528
4185.123942931257,4216.414658731976,4141.035032425422,4204.622549782559,4244.599002517738,4214.87054322118,4197.947758754864,4192.806821087968,4201.028708018615,4186.685947203784,4170.772931105516,4208.729036087587,4096.405084458686,4169.736298008697
4182.044721141375,4210.774448615244,4136.919377431907,4199.493388876173,4232.804699931334,4208.720444037538,4198.478420233463,4192.312272526131,4204.10765850309,4185.145022507058,4163.081571068895,4204.6228992141605,4087.1723001449604,4165.1316662851905
4181.531517509728,4212.322741588464,4136.401322957199,4202.057969329367,4239.478995193408,4210.782327000839,4211.780334630351,4181.524932021058,4208.708786755169,4186.685947203784,4166.1513682764935,4205.649433432517,4097.4469161516745,4163.596789044022
4183.584332036316,4215.898561074236,4137.4374319066155,4207.187130235752,4250.2675820553895,4218.4610635538265,4217.936007782101,4196.423207446403,4212.306661478599,4198.465460440986,4180.522067292287,4210.2403225757225,4114.367699855039,4170.268806439307
4185.6371465629045,4219.990478217746,4139.998923476006,4212.821983062486,4249.216151979857,4219.989700923172,4216.414778210117,4213.856044251163,4216.907789730678,4211.272256809339,4180.522067292287,4209.242303196765,4119.505007858396,4176.408315403983
4187.176757457846,4223.603161821928,4141.035032425422,4216.903639276723,4243.593286793316,4216.932426184482,4216.910062256809,4205.139625848783,4226.663565423056,4215.381389333944,4173.842728313115,4210.2403225757225,4120.510914320592,4180.511762722209
4189.742775616082,4225.630688334478,4143.596523994813,4216.397947356375,4248.2104362554355,4224.113466849775,4216.414778210117,4199.48322667277,4218.983486686503,4204.115517662318,4181.5340883497365,4213.833192339971,4122.558652475776,4183.581517204547
4191.282386511024,4230.238703135729,4150.244889753567,4216.903639276723,4261.010454566262,4233.320840772107,4216.910062256809,4201.523239490349,4205.629836270695,4198.979102006561,4188.213427328908,4212.806658121614,4125.648222323949,4186.682595712215
4187.176757457846,4235.39967971313,4151.280998702983,4219.468219729915,4263.570458228427,4227.170741588465,4214.858171206226,4195.372291752498,4213.828839246204,4202.5745929655905,4177.958280613413,4209.727055466545,4123.6004841687645,4185.648902876325
4186.663553826199,4230.238703135729,4146.67607003891,4219.468219729915,4250.2675820553895,4212.310964370185,4199.999649805448,4191.292266117342,4225.625716945144,4196.924535744259,4171.784952162966,4209.242303196765,4114.870653086137,4181.0442711528185
4197.440830090791,4222.570966506447,4151.280998702983,4221.5271082627605,4243.593286793316,4203.068040741589,4186.167073929962,4188.7267954528115,4215.904536202029,4199.4927435721365,4186.155651178759,4217.939329213397,4116.918391241321,4190.253534599832
4206.165291828794,4224.119259479668,4161.037691309987,4220.5157244220645,4250.770439917601,4198.446578927291,4190.766140077822,4184.090402685588,4201.547632257572,4207.711008621347,4195.90478736553,4223.585267414359,4131.791436789502,4205.633631036851
4204.112477302205,4223.087064164187,4160.001582360571,4216.397947356375,4243.593286793316,4198.446578927291,4198.973704280156,4188.7267954528115,4201.028708018615,4193.32904478523,4187.707416800183,4222.045466086824,4139.479436179141,4200.527814908064
4200.006848249027,4218.479049362936,4156.403981841764,4216.903639276723,4230.79326848249,4202.570344853895,4201.556256809338,4196.91775600824,4201.028708018615,4185.145022507058,4180.522067292287,4218.452596322575,4127.695960479134,4190.786043030442
4198.467237354085,4215.898561074236,4155.396653696498,4218.45683588922,4231.798984206912,4199.477520408942,4202.582202334631,4194.877743190662,4188.71290608072,4201.547309834439,4182.579843442435,4214.346459449149,4122.558652475776,4190.786043030442
4198.9804409857325,4216.9307563897155,4153.842490272374,4214.880871595331,4231.798984206912,4198.446578927291,4201.556256809338,4184.61586053254,4185.633955596246,4205.142800793469,4185.649640650035,4217.4260621042185,4134.8810066376745,4190.786043030442
4203.08607003891,4225.114590676738,4155.885927367056,4214.880871595331,4233.353272144655,4208.720444037538,4202.051540856031,4191.292266117342,4214.866687724117,4187.165345998322,4191.283224536507,4222.045466086824,4144.1137909514,4195.390674753948
4205.138884565499,4229.759469596399,4155.396653696498,4216.903639276723,4241.033283131151,4211.777718776227,4209.7284435797665,4212.805128557259,4228.704667429617,4186.172305638209,4194.859032272831,4218.965863431754,4138.976482948043,4201.028999313344
4203.08607003891,4219.4743805600065,4153.3244357976655,4215.386563515679,4239.478995193408,4209.751385519189,4214.362887159533,4208.19964507515,4205.629836270695,4209.217690547036,4189.731458915084,4216.912794995041,4140.018314641032,4197.426736400396
4201.546459143969,4214.866365758755,4153.842490272374,4214.33905882353,4234.358987869077,4215.368239108873,4207.181268482491,4192.806821087968,4196.911909056229,4216.92231403067,4184.603885557336,4215.886260776684,4150.759958648051,4192.82210467689
4201.546459143969,4214.866365758755,4153.842490272374,4214.33905882353,4234.358987869077,4215.368239108873,4207.181268482491,4192.806821087968,4196.911909056229,4216.92231403067,4184.603885557336,4215.886260776684,4150.759958648051,4192.82210467689
4194.874811932555,4225.630688334478,4146.67607003891,4213.327674982834,4230.244696269168,4211.777718776227,4195.89586770428,4204.088710154879,4207.70553322652,4201.033668268864,4185.143630121309,4208.729036087587,4151.801790341039,4187.684964522774
4189.742775616082,4227.178981307698,4141.035032425422,4210.257402609293,4222.061827420462,4201.041707484551,4199.999649805448,4211.290573586633,4207.70553322652,4193.842686350805,4184.603885557336,4206.675967650874,4148.712220492866,4184.114025635156
4195.901219195849,4224.119259479668,4149.755616083009,4213.327674982834,4230.79326848249,4202.570344853895,4209.233159533074,4196.423207446403,4207.70553322652,4201.033668268864,4184.603885557336,4214.346459449149,4153.3465752651255,4190.253534599832
4202.059662775616,4229.243371938659,4157.958145265889,4219.468219729915,4248.2104362554355,4205.129923704891,4201.556256809338,4195.372291752498,4220.505664454108,4208.224650186923,4188.213427328908,4215.372993667505,4157.442051575494,4195.390674753948
4199.49364461738,4232.30309376669,4153.3244357976655,4218.962527809568,4243.593286793316,4206.658561074236,4194.374638132296,4207.705096513313,4220.505664454108,4206.1700839246205,4188.719437857633,4211.780123903258,4154.855434958419,4188.217472953384
4195.901219195849,4229.759469596399,4150.244889753567,4218.45683588922,4236.918991531243,4213.341905851836,4203.077486381323,4204.614168001831,4207.186608987564,4191.788120088502,4185.143630121309,4218.452596322575,4154.855434958419,4185.116394445716
4197.954033722438,4229.243371938659,4151.799053177691,4220.5157244220645,4242.587571068894,4208.18719844358,4206.685984435798,4201.028690928511,4197.430833295186,4184.631380941481,4182.040098878462,4220.505664759288,4152.807696803235,4186.150087281605
4199.49364461738,4230.238703135729,4151.799053177691,4217.445452048524,4240.53042526894,4198.979824521249,4204.103431906615,4206.159632257572,4190.235083848325,4197.95181887541,4181.028077821012,4215.886260776684,4150.257005416953,4184.615210040436
4198.9804409857325,4225.630688334478,4154.87859922179,4216.397947356375,4225.627546807049,4202.037099259938,4205.660038910506,4199.48322667277,4194.351882810712,4192.8154032196535,4183.085853971161,4218.965863431754,4154.855434958419,4186.682595712215
4198.9804409857325,4220.506575875486,4156.922036316472,4217.951143968872,4217.947535820554,4203.601286335546,4199.504365758755,4188.7267954528115,4199.990859540703,4176.413115892271,4184.09787502861,4220.505664759288,4153.849528496224,4187.684964522774
4199.49364461738,4218.958282902267,4154.87859922179,4214.880871595331,4224.621831082627,4201.041707484551,4199.504365758755,4197.937762417029,4198.95301106279,4189.219912260624,4177.958280613413,4217.939329213397,4143.574912489509,4183.581517204547
4197.954033722438,4219.4743805600065,4154.360544747082,4212.821983062486,4234.861845731289,4200.508461890593,4206.685984435798,4205.63417441062,4206.667684748607,4204.629159227893,4173.33671778439,4217.4260621042185,4144.1137909514,4185.648902876325
4191.795590142671,4217.446854047455,4151.799053177691,4212.316291142139,4234.861845731289,4202.037099259938,4205.660038910506,4201.523239490349,4218.983486686503,4201.033668268864,4178.464291142138,4214.859726558328,4155.39431342031,4189.7523501945525
4188.203164721141,4213.834170443275,4149.755616083009,4206.139625543603,4225.627546807049,4205.129923704891,4206.685984435798,4205.139625848783,4219.986740215152,4195.383611047532,4184.603885557336,4214.859726558328,4157.945004806592,4188.217472953384
4187.689961089493,4216.9307563897155,4153.842490272374,4202.057969329367,4227.1818347447925,4205.627619592585,4207.7119299610895,4206.159632257572,4214.347763485161,4200.006385137713,4184.603885557336,4219.479130540932,4155.897266651407,4186.150087281605
4185.6371465629045,4213.834170443275,4149.755616083009,4202.057969329367,4232.301842069123,4204.596678110934,4202.051540856031,4200.008684519722,4208.708786755169,4212.813181506065,4186.661661707484,4217.939329213397,4161.537527885863,4189.219841763943
4183.071128404668,4201.5215548943315,4139.998923476006,4199.493388876173,4222.061827420462,4201.041707484551,4200.530311284047,4197.937762417029,4197.949757534142,4206.1700839246205,4187.16767223621,4212.293391012436,4164.6270977340355,4188.718657358663
4184.61073929961,4203.585945525292,4142.042360570687,4201.552277409019,4211.27324055848,4201.041707484551,4205.1293774319065,4199.48322667277,4198.95301106279,4178.467682154574,4176.406514991989,4208.729036087587,4158.44795803769,4185.116394445716
4184.097535667963,4221.022673533226,4144.603852140078,4204.622549782559,4220.004681620508,4208.720444037538,4200.530311284047,4197.443213855192,4205.629836270695,4172.817624933242,4164.093592126344,4206.162700541695,4147.16743556878,4180.511762722209
4178.965499351491,4218.479049362936,4136.919377431907,4201.010464637217,4228.736122682536,4210.782327000839,4196.42652918288,4188.7267954528115,4196.392984817273,4186.172305638209,4161.529805447471,4208.215768978408,4138.473529716945,4176.408315403983
4177.42588845655,4200.526223697261,4134.357885862517,4195.881303730831,4221.558969558251,4201.539403372244,4199.999649805448,4182.050389868009,4186.671804074159,4185.145022507058,4167.703133897917,4209.242303196765,4145.1196974135955,4177.943192645152
4184.097535667963,4204.618140840772,4138.962814526589,4197.940192263676,4222.564685282673,4197.948883039598,4200.530311284047,4185.141318379492,4191.7918565651935,4191.788120088502,4176.912525520715,4210.2403225757225,4158.44795803769,4185.648902876325
4186.150350194552,4216.9307563897155,4137.955486381324,4205.633933623255,4231.296126344701,4202.570344853895,4202.051540856031,4190.241350423438,4199.471935301747,4209.731332112611,4182.579843442435,4210.2403225757225,4158.98683649958,4186.150087281605
4184.097535667963,4216.414658731976,4142.5604150453955,4212.821983062486,4231.798984206912,4208.720444037538,4202.582202334631,4192.312272526131,4209.746635233081,4208.70404898146,4187.16767223621,4211.780123903258,4160.531621423666,4185.116394445716
4191.795590142671,4223.087064164187,4153.3244357976655,4216.903639276723,4229.741838406958,4211.777718776227,4202.582202334631,4204.614168001831,4232.302542153047,4200.520026703288,4189.225448386358,4214.346459449149,4170.770312199588,4192.320920271611
4202.572866407263,4234.88358205539,4154.87859922179,4216.903639276723,4228.187550469214,4205.627619592585,4202.582202334631,4209.745109330892,4224.622463416495,4200.006385137713,4187.707416800183,4216.912794995041,4171.273265430686,4199.9953064774545
4201.546459143969,4225.630688334478,4151.280998702983,4214.33905882353,4230.244696269168,4194.358362706951,4198.478420233463,4200.008684519722,4185.11503135729,4205.656442359044,4193.847011215381,4218.965863431754,4166.674835889219,4202.062692149233
4198.467237354085,4212.801975127794,4153.3244357976655,4212.821983062486,4235.364703593499,4196.420245670253,4198.973704280156,4197.937762417029,4189.750754558632,4202.5745929655905,4201.032360723278,4216.912794995041,4174.362835278858,4201.530183718623
4200.520051880674,4222.570966506447,4157.958145265889,4214.880871595331,4229.2389805447465,4205.627619592585,4211.780334630351,4203.5941615930415,4222.5467664606695,4190.760836957351,4192.834990157931,4218.452596322575,4176.913526665141,4201.530183718623
4200.006848249027,4233.33528908217,4156.403981841764,4216.397947356375,4219.501823758297,4208.18719844358,4217.936007782101,4203.06870374609,4218.464562447547,4188.706270695048,4182.579843442435,4220.505664759288,4165.130050965133,4200.527814908064
4197.954033722438,4228.727274280919,4160.001582360571,4211.268786449989,4218.9532515449755,4202.037099259938,4198.973704280156,4194.877743190662,4202.0319615472645,4195.897252613107,4182.579843442435,4219.479130540932,4164.6270977340355,4198.460429236286
4195.388015564202,4217.446854047455,4169.240220492867,4202.563661249715,4219.501823758297,4193.860666819257,4183.0892373540855,4188.7267954528115,4199.990859540703,4188.192629129473,4176.912525520715,4224.098534523537,4168.722574044404,4192.320920271611
4192.3087937743185,4210.258350957503,4170.765603112841,4197.940192263676,4217.444677958342,4194.856058594644,4186.662357976654,4186.655873350118,4184.596107118334,4171.276700236514,4166.1513682764935,4227.691404287785,4151.298837109941,4184.114025635156
4195.901219195849,4211.290546272984,4170.247548638133,4201.010464637217,4216.941820096132,4195.389304188602,4193.348692607004,4184.61586053254,4170.239203173876,4173.844908064393,4165.139347219043,4224.6118016327155,4138.976482948043,4184.114025635156
4201.033255512321,4215.382463416495,4177.960804150454,4206.139625543603,4217.947535820554,4192.829725337607,4195.400583657588,4183.5958541237505,4179.994978866254,4182.576814679179,4170.266920576791,4225.638335851072,4149.215173723965,4188.217472953384
4197.954033722438,4216.414658731976,4181.529623865111,4204.622549782559,4219.501823758297,4195.389304188602,4191.29680155642,4177.939454947737,4189.750754558632,4187.678987563897,4176.912525520715,4225.638335851072,4155.897266651407,4185.116394445716
4193.84840466926,4214.866365758755,4177.960804150454,4200.504772716869,4218.9532515449755,4195.887000076295,4183.0892373540855,4176.919448538949,4196.911909056229,4190.247195391776,4176.912525520715,4224.6118016327155,4157.442051575494,4183.581517204547
4202.059662775616,4215.898561074236,4186.652607003892,4202.563661249715,4215.387532158388,4187.177322041658,4182.063291828794,4185.141318379492,4203.588734264134,4186.172305638209,4171.278941634241,4231.7975411612115,4164.088219272145,4195.390674753948
4214.8576783398175,4218.958282902267,4204.611828793774,4207.6928221561,4213.833244220645,4181.524918745709,4186.167073929962,4182.575847714961,4190.235083848325,4179.494965285725,4172.290962691692,4242.034368505379,4163.585266041046,4204.098753795682
4218.450103761348,4217.962951705196,4215.893904020752,4206.139625543603,4216.39324788281,4182.5558602273595,4182.558575875487,4172.31396505684,4170.758127412832,4171.790341802091,4170.266920576791,4245.627238269627,4154.352481727321,4203.065060959792
4225.121750972762,4216.9307563897155,4228.701361867705,4201.552277409019,4216.941820096132,4185.115439078356,4181.532630350195,4180.504925612268,4169.235949645227,4167.167567711909,4165.139347219043,4256.4058475623715,4152.304743572137,4203.597569390402
4236.925434500648,4216.9307563897155,4244.099092088198,4202.057969329367,4211.776098420691,4189.7369008926535,4187.193019455253,4187.706789044022,4169.235949645227,4166.140284580758,4175.394493934539,4271.290593728541,4158.44795803769,4210.770771190966
4238.46504539559,4214.866365758755,4243.58103761349,4206.139625543603,4207.707521171893,4191.265538261998,4180.506684824903,4172.31396505684,4171.2770516517885,4178.98132372015,4177.958280613413,4264.618121309224,4158.44795803769,4212.305648432135
4233.333009079118,4218.958282902267,4233.335071335928,4210.763094529641,4209.764666971847,4186.679626153964,4173.855727626459,4168.728487983521,4189.750754558632,4186.685947203784,4167.703133897917,4252.299710688944,4158.44795803769,4208.202201113908
4232.819805447471,4229.243371938659,4227.694033722439,4214.880871595331,4212.324670634012,4186.679626153964,4180.01140077821,4184.61586053254,4203.0698100251775,4184.631380941481,4174.8547493705655,4250.75990936141,4165.130050965133,4211.271955596246
4225.634954604409,4229.243371938659,4218.973450064851,4213.833366903182,4221.558969558251,4190.27014648661,4192.322747081712,4195.372291752498,4198.95301106279,4188.706270695048,4187.16767223621,4246.140505378805,4170.770312199588,4210.770771190966
4216.9104928664065,4226.146785992218,4208.727483787289,4210.257402609293,4231.296126344701,4190.27014648661,4199.999649805448,4198.9886781109335,4201.028708018615,4190.247195391776,4186.155651178759,4242.034368505379,4170.770312199588,4208.7347095445175
4217.936900129701,4228.727274280919,4203.575719844358,4211.7744783703365,4223.570401007095,4189.239205004959,4201.02559533074,4200.008684519722,4202.5508857862205,4184.631380941481,4184.09787502861,4242.034368505379,4164.6270977340355,4208.7347095445175
4213.831271076523,4230.238703135729,4194.365862516213,4214.880871595331,4212.324670634012,4189.239205004959,4196.42652918288,4196.423207446403,4191.272932326237,4187.678987563897,4182.579843442435,4237.443479362173,4159.9927429617765,4205.132446631571
4204.625680933852,4226.6628836499585,4186.652607003892,4209.209897917144,4217.444677958342,4185.648684672313,4193.843976653697,4185.635866941329,4185.633955596246,4191.788120088502,4177.958280613413,4228.717938506142,4158.44795803769,4202.062692149233
4196.9276264591435,4215.382463416495,4183.083787289235,4201.010464637217,4217.444677958342,4182.058164339666,4199.999649805448,4180.504925612268,4187.675057602807,4185.145022507058,4176.912525520715,4228.717938506142,4154.352481727321,4197.426736400396
4191.795590142671,4204.618140840772,4173.845149156939,4198.445884184024,4207.158948958571,4186.146380560007,4203.077486381323,4192.806821087968,4189.750754558632,4183.090456244755,4173.33671778439,4231.7975411612115,4149.754052185855,4190.786043030442
4193.84840466926,4212.322741588464,4172.319766536965,4198.445884184024,4210.770382696269,4196.420245670253,4199.504365758755,4203.06870374609,4197.430833295186,4186.172305638209,4169.727176012818,4229.744472724498,4152.807696803235,4189.7523501945525
4202.059662775616,4228.211176623178,4186.163333333334,4206.139625543603,4217.444677958342,4201.539403372244,4198.973704280156,4199.48322667277,4213.3445099565115,4195.897252613107,4177.958280613413,4231.284274052033,4159.489789730678,4197.959244831006
4205.652088197146,4233.85138673991,4188.206770428016,4214.33905882353,4218.450393682765,4195.887000076295,4203.608147859923,4200.503233081559,4213.828839246204,4200.520026703288,4183.085853971161,4234.877143816281,4158.98683649958,4203.597569390402
4198.467237354085,4230.238703135729,4173.327094682231,4209.209897917144,4216.39324788281,4192.296479743649,4198.478420233463,4197.443213855192,4204.626582742046,4184.117739375906,4174.34873884184,4227.691404287785,4157.442051575494,4195.390674753948
4189.229571984435,4218.958282902267,4165.124565499352,4201.010464637217,4211.776098420691,4187.675017929351,4185.636412451362,4182.050389868009,4199.990859540703,4177.440399023422,4168.715154955367,4219.99239765011,4154.855434958419,4185.116394445716
4185.123942931257,4213.318072785534,4166.649948119326,4198.445884184024,4212.324670634012,4184.084497596705,4188.714249027237,4186.655873350118,4191.7918565651935,4184.631380941481,4170.772931105516,4219.99239765011,4150.257005416953,4181.545455558098
4186.150350194552,4223.087064164187,4167.686057068742,4197.434500343328,4216.39324788281,4194.856058594644,4203.608147859923,4204.088710154879,4188.193981841764,4185.658664072633,4172.8307072556645,4218.965863431754,4150.759958648051,4184.615210040436
4187.689961089493,4228.727274280919,4168.20411154345,4198.987696955825,4215.387532158388,4205.129923704891,4206.155322957198,4203.5941615930415,4194.351882810712,4191.788120088502,4170.772931105516,4219.99239765011,4152.304743572137,4185.648902876325
4187.689961089493,4226.6628836499585,4168.7221660181585,4203.069353170063,4215.8903900206,4201.539403372244,4202.582202334631,4200.008684519722,4204.10765850309,4194.869969481956,4169.221165484092,4222.558733196002,4152.304743572137,4183.080332799267
4187.689961089493,4225.630688334478,4167.168002594034,4200.504772716869,4218.9532515449755,4199.477520408942,4206.155322957198,4197.443213855192,4197.949757534142,4184.117739375906,4173.33671778439,4221.018931868467,4159.489789730678,4185.648902876325
4192.3087937743185,4229.243371938659,4168.20411154345,4202.057969329367,4215.8903900206,4201.041707484551,4206.155322957198,4190.241350423438,4190.235083848325,4196.4108941786835,4184.603885557336,4222.558733196002,4170.770312199588,4192.82210467689
4199.49364461738,4237.427206225681,4170.247548638133,4212.316291142139,4213.330386358434,4199.477520408942,4201.556256809338,4197.443213855192,4205.110912031739,4223.599654383154,4195.398776836805,4224.6118016327155,4176.410573434043,4198.460429236286
4202.059662775616,4247.675431143663,4169.240220492867,4217.445452048524,4220.004681620508,4202.570344853895,4204.103431906615,4216.916063477531,4227.182489662013,4215.895030899519,4199.986605630579,4222.558733196002,4178.961264820325,4201.530183718623
4201.033255512321,4246.680099946593,4168.7221660181585,4214.880871595331,4224.621831082627,4203.601286335546,4200.530311284047,4213.856044251163,4227.701413900969,4194.356327916381,4197.422818951705,4219.479130540932,4180.003096513314,4200.527814908064
4197.954033722438,4236.911108567941,4166.160674448768,4214.880871595331,4209.764666971847,4197.451187151904,4184.61046692607,4198.463220263981,4214.866687724117,4197.438177309835,4189.225448386358,4215.372993667505,4173.859882047761,4193.855797512779
4195.388015564202,4235.39967971313,4164.0884565499355,4214.33905882353,4197.421792172121,4198.446578927291,4187.193019455253,4207.179638666362,4212.306661478599,4209.731332112611,4183.591864499886,4212.293391012436,4166.674835889219,4191.788411841001
4199.49364461738,4243.583514000153,4164.606511024644,4205.128241702907,4211.776098420691,4204.596678110934,4208.737875486381,4218.461527733272,4216.388865491722,4205.142800793469,4185.143630121309,4213.833192339971,4167.680742351416,4196.925551995117
4204.625680933852,4247.196197604334,4164.0884565499355,4201.552277409019,4225.1246889448385,4207.689502555887,4211.285050583658,4202.574155184253,4219.467815976195,4200.520026703288,4190.271203479057,4211.780123903258,4176.410573434043,4195.390674753948
4196.9276264591435,4241.039889829862,4158.447418936446,4207.187130235752,4216.941820096132,4198.979824521249,4199.999649805448,4187.706789044022,4206.667684748607,4203.088234531167,4185.143630121309,4203.083097886625,4173.859882047761,4184.615210040436
4184.097535667963,4231.786996108949,4147.165343709468,4205.128241702907,4212.324670634012,4185.115439078356,4194.374638132296,4195.89774959945,4179.476054627298,4191.788120088502,4168.2091444266425,4201.030029449912,4153.3465752651255,4178.97688548104
4182.044721141375,4232.30309376669,4137.955486381324,4199.999080796521,4215.387532158388,4190.767842374305,4197.947758754864,4207.179638666362,4183.592853589685,4186.172305638209,4169.727176012818,4202.569830777447,4153.849528496224,4184.114025635156
4188.203164721141,4240.523792172122,4142.5604150453955,4202.563661249715,4208.713236896315,4207.689502555887,4213.832225680934,4215.896057068742,4222.062437170977,4211.272256809339,4192.295245593958,4203.596364995804,4185.643357747768,4196.424367589837
4190.25597924773,4241.039889829862,4150.244889753567,4205.633933623255,4201.033225909819,4209.218139925231,4223.065735408561,4221.5524562447545,4235.900416876478,4223.599654383154,4198.974584573129,4207.1892347600515,4194.876142061494,4205.633631036851
4187.689961089493,4240.007694514382,4145.121906614786,4203.57504509041,4199.9817958342865,4201.041707484551,4209.7284435797665,4211.785122148471,4217.945638208591,4202.060951400015,4187.707416800183,4202.056563668269,4173.32100358587,4197.959244831006
4187.176757457846,4249.223724116884,4133.839831387809,4204.622549782559,4205.650375371938,4200.508461890593,4195.89586770428,4198.9886781109335,4207.70553322652,4192.301761654078,4182.040098878462,4191.277954375524,4168.722574044404,4186.150087281605
4182.044721141375,4245.131806973373,4126.155356679637,4202.563661249715,4205.650375371938,4198.979824521249,4194.869922178988,4195.372291752498,4205.110912031739,4202.5745929655905,4175.394493934539,4186.145283283741,4171.273265430686,4185.648902876325
4174.346666666666,4231.270898451209,4122.557756160831,4199.493388876173,4199.9817958342865,4200.0107660029,4198.478420233463,4198.9886781109335,4196.392984817273,4200.006385137713,4168.2091444266425,4184.092214847028,4155.39431342031,4178.97688548104
4170.2410376134885,4226.6628836499585,4123.075810635539,4198.987696955825,4208.210379034103,4204.0989822232405,4205.1293774319065,4214.350592813001,4194.870807049668,4188.706270695048,4170.266920576791,4185.118749065385,4149.215173723965,4169.235113603418
4169.727833981841,4218.479049362936,4126.155356679637,4188.729375143053,4210.770382696269,4197.451187151904,4204.634093385214,4216.916063477531,4201.028708018615,4191.788120088502,4170.266920576791,4191.277954375524,4159.489789730678,4171.803683680476
4172.807055771725,4216.414658731976,4131.278339818418,4184.105906157016,4199.9817958342865,4191.798783855956,4194.869922178988,4198.9886781109335,4201.028708018615,4199.4927435721365,4168.2091444266425,4195.897358358129,4160.531621423666,4178.475701075761
4174.859870298314,4231.786996108949,4133.839831387809,4192.305339436943,4206.153233234149,4196.9179415579465,4198.973704280156,4195.89774959945,4197.430833295186,4196.924535744259,4171.784952162966,4191.791221484703,4152.304743572137,4173.8397453269245
4171.78064850843,4227.178981307698,4128.716848249028,4192.305339436943,4215.387532158388,4201.539403372244,4214.858171206226,4204.088710154879,4193.314034332799,4184.117739375906,4161.529805447471,4183.578947737849,4146.161529106585,4168.733929198138
4166.648612191958,4213.834170443275,4123.593865110247,4183.058401464867,4203.593229571984,4195.389304188602,4210.259105058366,4197.443213855192,4195.389731288624,4166.653926146334,4146.653095902952,4183.578947737849,4144.1137909514,4168.201420767528
4169.727833981841,4225.114590676738,4126.673411154346,4186.164794689861,4198.976080109865,4198.446578927291,4199.999649805448,4206.65418081941,4214.347763485161,4169.735775539788,4154.884200503548,4188.198351720454,4150.759958648051,4168.201420767528
4168.701426718547,4229.759469596399,4125.119247730221,4192.305339436943,4210.267524834057,4210.249081406882,4209.233159533074,4225.137933318074,4220.505664454108,4194.356327916381,4171.278941634241,4184.092214847028,4161.537527885863,4171.803683680476
4169.727833981841,4217.962951705196,4136.919377431907,4186.670486610209,4210.770382696269,4205.627619592585,4210.754389105058,4207.179638666362,4198.468681773098,4200.006385137713,4165.645357747769,4186.145283283741,4154.352481727321,4168.201420767528
4174.859870298314,4222.570966506447,4153.842490272374,4185.62298191806,4212.827528496223,4194.358362706951,4195.400583657588,4195.372291752498,4188.71290608072,4184.631380941481,4154.344455939574,4197.437159685664,4144.1137909514,4163.095604638743
4124.084785992218,4245.647904631113,4053.857976653697,4199.999080796521,4228.187550469214,4208.720444037538,4202.582202334631,4231.783429617762,4225.141387655451,4208.70404898146,4177.958280613413,4157.944107118334,4176.410573434043,4163.095604638743
4159.495836575875,4230.238703135729,4113.837172503243,4198.445884184024,4214.884674296177,4206.160865186542,4203.608147859923,4224.117926909285,4225.141387655451,4212.813181506065,4177.418536049439,4185.118749065385,4176.410573434043,4175.374622568093
4208.699234760052,4214.350268101015,4214.368521400778,4186.670486610209,4199.9817958342865,4192.296479743649,4193.348692607004,4189.221344014649,4193.314034332799,4177.440399023422,4152.826424353399,4229.744472724498,4143.574912489509,4180.010578316929
3913.8316731517502,4303.598298771649,3659.4746173800263,4224.091688715954,4251.776155642023,4268.195102616923,4263.077610894942,4275.396430914779,4292.80910841535,4271.299834439613,4242.05294758526,3972.825769741359,4241.040063630121,4132.836596169986
3661.5279377431903,4374.340542000458,3172.82,4263.066087434196,4293.833358663309,4338.4768719005115,4337.440972762646,4356.409667200733,4395.383132982375,4388.20465476463,4338.464820325017,3744.6215100328063,4348.205027084764,4088.199860074769
3911.778858625162,4294.861502708476,3640.5080674448773,4225.644885328451,4245.14757473106,4272.81656443122,4288.195587548638,4279.476456549935,4305.643834592202,4301.022559700923,4258.987433279926,3966.1532973220415,4256.9190156404975,4117.957684138247
4177.939092088197,4213.318072785534,4135.883268482491,4184.611598077364,4191.296069123369,4197.451187151904,4214.362887159533,4201.523239490349,4199.990859540703,4180.522248416876,4157.4479871824215,4208.729036087587,4143.574912489509,4165.63285069047
4177.939092088197,4213.318072785534,4135.883268482491,4184.611598077364,4191.296069123369,4197.451187151904,4214.362887159533,4201.523239490349,4199.990859540703,4180.522248416876,4157.4479871824215,4208.729036087587,4143.574912489509,4165.63285069047
4115.90560311284,4234.3674843976505,4005.6501297016866,4197.434500343328,4199.478937972076,4202.037099259938,4212.310996108949,4213.856044251163,4221.024588693064,4216.92231403067,4182.040098878462,4155.377771572442,4171.273265430686,4167.167727931639
4098.969883268482,4241.555987487603,3967.1701945525297,4207.6928221561,4206.656091096361,4195.389304188602,4212.8062801556425,4213.856044251163,4224.622463416495,4237.947375448233,4198.974584573129,4140.008273136492,4185.14040451667,4164.630481879911
4181.01831387808,4217.962951705196,4123.593865110247,4197.434500343328,4194.358930647745,4177.436702525369,4194.869922178988,4197.443213855192,4185.633955596246,4181.035889982452,4165.645357747769,4211.780123903258,4143.071959258412,4174.873438162814
4161.548651102464,4228.211176623178,4091.7910765239953,4194.869919890136,4194.358930647745,4197.451187151904,4197.452474708171,4205.63417441062,4195.908655527581,4173.331266498817,4165.645357747769,4193.331022812237,4145.658575875486,4174.372253757534
4153.337392996108,4233.85138673991,4084.624656290532,4194.364227969788,4199.478937972076,4202.570344853895,4199.504365758755,4203.5941615930415,4205.629836270695,4187.165345998322,4169.221165484092,4189.73815304799,4156.939098344396,4178.475701075761
4167.675019455252,4232.81919142443,4108.714189364462,4197.940192263676,4203.593229571984,4198.979824521249,4200.530311284047,4198.463220263981,4198.95301106279,4191.274478522927,4166.657378805218,4199.490228122377,4155.39431342031,4184.114025635156
4164.595797665369,4236.395010910201,4103.591206225681,4204.080737010758,4203.593229571984,4209.218139925231,4204.103431906615,4198.9886781109335,4199.471935301747,4200.520026703288,4174.34873884184,4196.923892576486,4153.849528496224,4183.581517204547
4162.575058365758,4228.727274280919,4111.793735408561,4196.92880842298,4202.0389416342405,4207.689502555887,4201.02559533074,4207.179638666362,4206.148760509651,4201.033668268864,4176.912525520715,4205.649433432517,4151.801790341039,4184.114025635156
4161.0354474708165,4224.119259479668,4112.311789883269,4191.799647516595,4199.9817958342865,4199.477520408942,4200.530311284047,4223.067011215381,4219.986740215152,4199.4927435721365,4182.040098878462,4206.162700541695,4161.537527885863,4192.320920271611
4176.9126848249025,4230.754800793469,4131.278339818418,4196.423116502632,4203.090371709773,4200.0107660029,4199.504365758755,4215.37059922179,4224.103539177539,4198.979102006561,4193.847011215381,4211.780123903258,4171.273265430686,4205.132446631571
4183.071128404668,4233.85138673991,4139.998923476006,4202.057969329367,4200.530368047608,4201.539403372244,4201.556256809338,4205.63417441062,4213.828839246204,4201.547309834439,4194.353021744107,4213.833192339971,4172.818050354772,4209.235893949797
4178.965499351491,4222.570966506447,4139.998923476006,4198.987696955825,4190.244639047836,4200.508461890593,4209.7284435797665,4218.461527733272,4208.708786755169,4208.70404898146,4192.295245593958,4213.319925230792,4174.362835278858,4208.7347095445175
4172.807055771725,4211.290546272984,4140.516977950714,4188.729375143053,4189.238923323414,4198.446578927291,4207.181268482491,4222.572462653544,4219.467815976195,4212.813181506065,4195.90478736553,4212.806658121614,4170.770312199588,4203.597569390402
4166.648612191958,4216.414658731976,4137.4374319066155,4187.681870450904,4199.478937972076,4197.948883039598,4197.452474708171,4213.856044251163,4217.945638208591,4204.629159227893,4186.155651178759,4209.727055466545,4155.39431342031,4189.219841763943
4172.293852140077,4230.754800793469,4142.5604150453955,4197.940192263676,4206.153233234149,4202.037099259938,4197.452474708171,4215.37059922179,4201.547632257572,4201.547309834439,4176.912525520715,4208.215768978408,4153.3465752651255,4187.684964522774
4185.6371465629045,4235.39967971313,4156.403981841764,4205.633933623255,4204.598945296406,4205.627619592585,4199.999649805448,4214.350592813001,4205.110912031739,4210.7586152437625,4182.040098878462,4214.859726558328,4161.034574654765,4202.563876554513
4185.123942931257,4232.30309376669,4158.447418936446,4197.940192263676,4201.53608377203,4201.041707484551,4206.155322957198,4202.048697337301,4219.986740215152,4202.060951400015,4177.418536049439,4219.479130540932,4145.1196974135955,4202.563876554513
4177.42588845655,4234.88358205539,4151.799053177691,4183.600214236668,4199.478937972076,4199.477520408942,4215.884116731518,4196.423207446403,4212.306661478599,4169.222133974212,4163.081571068895,4212.806658121614,4126.151175555046,4186.682595712215
4180.505110246433,4230.238703135729,4157.958145265889,4179.988129091325,4200.530368047608,4203.601286335546,4209.233159533074,4197.937762417029,4191.272932326237,4165.147244220645,4166.1513682764935,4214.859726558328,4130.2466518654155,4185.116394445716
4187.176757457846,4217.446854047455,4170.247548638133,4182.047017624171,4199.478937972076,4203.068040741589,4197.452474708171,4196.91775600824,4179.476054627298,4198.979102006561,4173.33671778439,4219.479130540932,4136.425791561761,4195.891859159227
4184.61073929961,4215.898561074236,4171.283657587549,4176.412164797437,4197.970364385443,4198.979824521249,4202.582202334631,4206.65418081941,4185.11503135729,4206.683725490196,4170.266920576791,4216.399527885862,4135.383959868773,4195.891859159227
4177.939092088197,4221.022673533226,4165.124565499352,4166.153842984665,4199.9817958342865,4198.979824521249,4205.1293774319065,4220.501540550851,4204.10765850309,4188.706270695048,4170.772931105516,4217.939329213397,4135.383959868773,4189.219841763943
4171.78064850843,4218.958282902267,4164.0884565499355,4165.648151064317,4197.970364385443,4200.0107660029,4198.478420233463,4210.765115739681,4209.227710994125,4193.842686350805,4173.33671778439,4219.479130540932,4130.2466518654155,4184.615210040436
4166.648612191958,4214.866365758755,4165.64261997406,4167.670918745709,4199.478937972076,4200.508461890593,4204.634093385214,4194.35228534371,4197.430833295186,4189.219912260624,4163.081571068895,4215.372993667505,4118.9661293965055,4182.046639963378
4170.754241245136,4214.350268101015,4167.168002594034,4164.09495445182,4202.587513847562,4202.570344853895,4210.259105058366,4204.614168001831,4203.588734264134,4168.708492408637,4156.402232089723,4221.532198977646,4122.558652475776,4186.150087281605
4174.346666666666,4208.193960326543,4169.240220492867,4157.954409704738,4195.364646372167,4197.948883039598,4203.608147859923,4222.047004806592,4222.062437170977,4189.219912260624,4168.715154955367,4228.204671396963,4133.336221713588,4191.788411841001
4169.214630350194,4198.977930724041,4166.649948119326,4151.2720521858555,4183.067485923552,4190.27014648661,4199.504365758755,4214.350592813001,4211.268813000686,4205.656442359044,4173.33671778439,4219.99239765011,4125.145269092851,4186.682595712215
4171.267444876783,4203.069847867552,4170.247548638133,4151.7777441062035,4182.564628061341,4194.358362706951,4199.999649805448,4198.9886781109335,4187.190728313115,4176.413115892271,4165.645357747769,4215.372993667505,4121.01386755169,4185.116394445716
4184.097535667963,4216.414658731976,4179.4861867704285,4159.471485465782,4196.918934309911,4205.129923704891,4203.077486381323,4198.9886781109335,4191.272932326237,4169.222133974212,4170.772931105516,4220.505664759288,4135.383959868773,4193.323289082169
4187.689961089493,4216.9307563897155,4177.442749675746,4160.5189901579315,4203.090371709773,4194.856058594644,4197.947758754864,4194.35228534371,4191.272932326237,4190.760836957351,4170.772931105516,4221.532198977646,4132.294390020599,4190.786043030442
4179.478702983139,4204.618140840772,4169.240220492867,4152.825248798353,4190.793211261158,4177.436702525369,4185.636412451362,4180.504925612268,4169.235949645227,4178.467682154574,4155.390211032272,4217.4260621042185,4108.188560158694,4179.47806988632
4181.531517509728,4207.677862668803,4177.442749675746,4151.7777441062035,4178.953194323643,4187.177322041658,4189.244910505837,4188.7267954528115,4173.837077897307,4160.524470130465,4158.460008239872,4218.965863431754,4108.7274386205845,4183.581517204547
4194.361608300907,4221.022673533226,4189.73215304799,4158.965793545434,4182.564628061341,4204.596678110934,4204.634093385214,4205.63417441062,4201.028708018615,4175.899474326696,4170.772931105516,4226.15160296025,4128.701866941329,4195.891859159227
4199.49364461738,4219.4743805600065,4187.1706614786,4159.471485465782,4194.861788509957,4204.0989822232405,4207.7119299610895,4203.06870374609,4204.10765850309,4188.706270695048,4169.727176012818,4226.15160296025,4134.8810066376745,4201.028999313344
4202.572866407263,4218.479049362936,4186.652607003892,4157.954409704738,4198.473222247653,4205.129923704891,4198.973704280156,4198.9886781109335,4196.911909056229,4186.685947203784,4172.290962691692,4227.691404287785,4138.473529716945,4208.202201113908
4201.546459143969,4219.4743805600065,4192.293644617381,4160.0132982375835,4190.793211261158,4209.751385519189,4203.077486381323,4202.048697337301,4206.148760509651,4187.165345998322,4177.958280613413,4229.23120561532,4142.066052796215,4210.770771190966
4190.25597924773,4194.88601358053,4186.652607003892,4147.190395971618,4181.010340123597,4196.9179415579465,4207.181268482491,4196.423207446403,4203.0698100251775,4184.117739375906,4168.2091444266425,4224.6118016327155,4126.654128786145,4202.563876554513
4182.557924773021,4181.5412027161065,4179.4861867704285,4136.932074158847,4183.570343785763,4187.177322041658,4194.374638132296,4190.766808270389,4181.032827344167,4182.063173113604,4155.896221560998,4222.045466086824,4107.6856069275955,4196.925551995117
4188.203164721141,4203.585945525292,4181.529623865111,4147.696087891966,4186.1760617990385,4201.041707484551,4187.6883035019455,4199.48322667277,4185.11503135729,4186.172305638209,4157.953997711147,4225.125068741893,4108.188560158694,4195.390674753948
4184.097535667963,4214.866365758755,4178.96813229572,4155.389829251545,4182.06177019913,4205.129923704891,4194.374638132296,4206.159632257572,4209.227710994125,4177.440399023422,4157.4479871824215,4221.018931868467,4109.73334508278,4190.786043030442
4168.1882230869,4208.710057984284,4171.283657587549,4148.707471732662,4185.627489585717,4188.208263523308,4190.2708560311285,4196.423207446403,4202.0319615472645,4154.360771343557,4141.01951201648,4209.727055466545,4085.1245619897763,4174.873438162814
4170.754241245136,4220.506575875486,4175.370531776914,4152.319556878005,4190.793211261158,4183.089105821317,4182.063291828794,4190.766808270389,4187.675057602807,4150.2516388189515,4129.246333714809,4210.753589684901,4060.5157788967726,4166.16535912108
4184.61073929961,4232.30309376669,4186.163333333334,4165.648151064317,4188.736065461204,4196.9179415579465,4192.818031128405,4200.503233081559,4199.990859540703,4163.6063195239185,4139.501480430305,4222.558733196002,4070.251516441596,4174.873438162814
4186.150350194552,4228.211176623178,4186.652607003892,4165.106338292516,4189.238923323414,4201.041707484551,4200.530311284047,4198.463220263981,4198.95301106279,4171.276700236514,4152.320413824674,4225.638335851072,4089.7589167620354,4184.114025635156
4183.071128404668,4229.243371938659,4184.091115434501,4160.0132982375835,4189.238923323414,4195.887000076295,4197.452474708171,4183.070396276798,4176.397104142824,4169.222133974212,4152.826424353399,4222.045466086824,4088.214131837949,4183.080332799267
4185.6371465629045,4231.270898451209,4185.127224383918,4167.165226825361,4183.067485923552,4202.570344853895,4200.530311284047,4178.959461356527,4177.434952620737,4170.763058670939,4151.7806692607,4221.018931868467,4077.939515831235,4182.046639963378
4186.150350194552,4223.603161821928,4184.609169909209,4169.224115358206,4189.238923323414,4201.041707484551,4198.973704280156,4183.5958541237505,4189.231830319676,4177.440399023422,4152.320413824674,4219.99239765011,4076.9336093690395,4180.511762722209
4183.071128404668,4215.382463416495,4184.091115434501,4157.954409704738,4201.53608377203,4188.705959411002,4193.843976653697,4187.18133119707,4174.874926375219,4172.817624933242,4151.7806692607,4217.4260621042185,4084.118655527581,4177.943192645152
4183.071128404668,4217.962951705196,4186.163333333334,4161.0246820782795,4196.918934309911,4192.296479743649,4189.740194552529,4188.7267954528115,4166.156999160754,4165.660885786221,4154.884200503548,4218.965863431754,4090.2618699931336,4177.943192645152
4185.123942931257,4219.4743805600065,4186.652607003892,4168.718423437858,4182.06177019913,4198.979824521249,4184.115182879377,4185.141318379492,4184.111777828641,4174.8721911955445,4155.390211032272,4219.99239765011,4087.1723001449604,4176.408315403983
4182.557924773021,4210.774448615244,4184.609169909209,4158.460101625086,4181.010340123597,4192.829725337607,4184.115182879377,4184.090402685588,4189.231830319676,4173.331266498817,4144.629053788052,4215.886260776684,4076.9336093690395,4174.372253757534
4173.320259403372,4213.834170443275,4183.083787289235,4153.330940718701,4196.416076447699,4185.115439078356,4186.662357976654,4185.635866941329,4174.356002136263,4150.765280384528,4135.891938658732,4212.806658121614,4067.700825055314,4172.837376516365
4166.648612191958,4217.446854047455,4181.529623865111,4160.0132982375835,4201.033225909819,4184.084497596705,4183.0892373540855,4173.3339714656295,4161.036946669718,4148.710714122225,4133.834162508583,4212.293391012436,4057.9650875104903,4170.268806439307
4169.727833981841,4206.6825314717325,4184.091115434501,4157.954409704738,4187.18177752346,4190.27014648661,4190.766140077822,4165.1430109102,4164.600226443885,4171.790341802091,4136.937693751431,4214.346459449149,4058.4680407415885,4173.8397453269245
4170.2410376134885,4197.945735408561,4181.529623865111,4151.7777441062035,4176.9417628748,4199.477520408942,4202.051540856031,4183.070396276798,4179.476054627298,4172.817624933242,4141.01951201648,4215.372993667505,4073.3410862897686,4176.408315403983
4166.648612191958,4196.91354009308,4171.801712062257,4151.2720521858555,4183.067485923552,4198.446578927291,4193.843976653697,4203.5941615930415,4179.994978866254,4156.9289791714355,4140.007490959029,4210.2403225757225,4076.3947309071486,4170.268806439307
4174.346666666666,4202.553750209811,4175.370531776914,4153.330940718701,4191.296069123369,4196.9179415579465,4184.61046692607,4197.937762417029,4171.2770516517885,4154.874412909133,4136.397949187457,4210.2403225757225,4070.251516441596,4173.338560921645
4187.689961089493,4211.290546272984,4189.2428793774325,4160.0132982375835,4188.187493247882,4200.0107660029,4188.714249027237,4181.0303834592205,4175.878179903868,4161.551753261616,4140.007490959029,4219.479130540932,4080.52613244831,4187.684964522774
4185.123942931257,4211.806643930724,4190.768261997407,4160.0132982375835,4180.004624399176,4191.265538261998,4193.843976653697,4182.575847714961,4178.957130388342,4158.469903868162,4141.525522545205,4221.532198977646,4088.717085069047,4188.217472953384
4178.965499351491,4202.553750209811,4186.163333333334,4157.44871778439,4182.06177019913,4182.058164339666,4192.818031128405,4188.201337605859,4163.596972915236,4138.9857671473255,4135.891938658732,4217.939329213397,4078.9813475242236,4181.0442711528185
4182.044721141375,4200.526223697261,4189.73215304799,4160.5189901579315,4187.684635385672,4189.239205004959,4190.766140077822,4179.484919203479,4158.961249713893,4132.3084267948425,4135.3859281300065,4218.965863431754,4072.838133058671,4182.046639963378
4182.044721141375,4200.526223697261,4189.73215304799,4157.44871778439,4177.44462073701,4182.5558602273595,4183.584521400779,4167.677572289616,4164.081302204929,4143.094899671931,4136.397949187457,4218.452596322575,4073.8440395208668,4180.511762722209
4178.965499351491,4194.36991592279,4187.1706614786,4154.884137331198,4165.650318150606,4165.634200045778,4173.855727626459,4172.808513618677,4168.198101167315,4149.2243556878,4136.937693751431,4221.018931868467,4076.3947309071486,4177.943192645152
4184.61073929961,4203.585945525292,4196.409299610896,4167.165226825361,4175.8903327992675,4174.877123674373,4180.01140077821,4188.7267954528115,4182.036080872816,4163.092677958342,4150.262637674525,4228.204671396963,4089.220038300145,4189.219841763943
4189.742775616082,4214.350268101015,4202.568391699093,4171.788695811399,4183.570343785763,4192.829725337607,4191.29680155642,4180.504925612268,4174.356002136263,4173.331266498817,4161.529805447471,4229.744472724498,4101.039439230945,4196.925551995117
4185.6371465629045,4201.042321355001,4192.811699092089,4157.44871778439,4174.381759212634,4188.705959411002,4190.766140077822,4161.526624551766,4157.439071946288,4154.874412909133,4148.204861524377,4219.479130540932,4090.7648232242313,4184.615210040436
4181.01831387808,4185.633119859617,4185.127224383918,4150.7663602655075,4177.44462073701,4183.089105821317,4185.14112840467,4175.373984283207,4167.160252689402,4146.142506294346,4137.94971480888,4214.346459449149,4079.4843007553213,4176.940823834592
4183.584332036316,4194.36991592279,4190.2502075226985,4157.954409704738,4184.1189159990845,4189.239205004959,4186.662357976654,4193.33227893492,4177.953876859693,4168.708492408637,4151.274658731975,4218.965863431754,4091.80665491722,4187.183780117494
4185.123942931257,4205.134238498513,4190.768261997407,4160.0132982375835,4172.32461341268,4187.675017929351,4186.662357976654,4179.484919203479,4174.874926375219,4166.653926146334,4158.460008239872,4216.399527885862,4107.182653696498,4189.219841763943
4178.965499351491,4198.977930724041,4185.127224383918,4158.460101625086,4168.210321812771,4184.617743190662,4187.6883035019455,4172.31396505684,4183.592853589685,4151.792563515679,4151.7806692607,4215.886260776684,4108.7274386205845,4183.581517204547
4176.399481193255,4195.8813447776,4186.652607003892,4162.577878690777,4183.570343785763,4187.675017929351,4187.193019455253,4186.1613247882815,4187.675057602807,4166.653926146334,4152.320413824674,4220.505664759288,4105.134915541314,4187.183780117494
4176.399481193255,4198.461833066301,4186.163333333334,4163.589262531472,4185.627489585717,4178.46764400702,4169.751945525292,4182.575847714961,4170.758127412832,4172.817624933242,4149.216882581826,4216.399527885862,4099.494654306859,4183.080332799267
4170.754241245136,4193.853818265049,4181.011569390403,4155.389829251545,4170.770325474937,4170.753357747769,4170.777891050584,4176.919448538949,4166.156999160754,4157.442620737011,4139.501480430305,4210.753589684901,4093.3514398413063,4172.3048680857555
4165.622204928663,4183.089495689326,4183.601841763943,4149.7549764248115,4164.598888075074,4180.493977264058,4195.400583657588,4183.5958541237505,4173.318153658351,4153.8471297779815,4138.961735866331,4213.833192339971,4092.8125613794155,4171.271175249866
4168.1882230869,4186.149217517357,4183.601841763943,4152.825248798353,4173.833186999313,4189.7369008926535,4202.582202334631,4186.1613247882815,4183.592853589685,4162.065394827191,4143.077288166629,4215.886260776684,4096.405084458686,4175.907130998703
4169.214630350194,4203.585945525292,4173.845149156939,4154.342324559396,4186.1760617990385,4187.177322041658,4184.115182879377,4177.939454947737,4188.193981841764,4153.8471297779815,4138.961735866331,4212.806658121614,4094.8602995345996,4171.271175249866
4165.622204928663,4214.350268101015,4171.283657587549,4155.389829251545,4186.1760617990385,4183.089105821317,4167.169392996109,4165.1430109102,4165.638074921797,4138.9857671473255,4131.810120393683,4207.70250186923,4086.6693469138627,4163.596789044022
4169.214630350194,4215.898561074236,4181.529623865111,4165.648151064317,4183.067485923552,4183.586801709011,4172.829782101167,4169.223036545358,4152.319019455253,4145.115223163195,4132.316130922408,4208.729036087587,4082.5738706034945,4166.16535912108
4173.320259403372,4215.898561074236,4184.609169909209,4173.847584344244,4187.18177752346,4187.675017929351,4191.792085603113,4188.7267954528115,4170.758127412832,4158.983545433738,4131.270375829709,4215.372993667505,4081.0290856794077,4170.769990844587
4168.701426718547,4213.318072785534,4180.522295719845,4170.7773119707035,4180.004624399176,4192.829725337607,4197.947758754864,4190.766808270389,4167.160252689402,4156.415337605859,4127.694568093385,4214.346459449149,4076.3947309071486,4170.268806439307
4166.648612191958,4206.166433813993,4183.083787289235,4167.670918745709,4166.656033875028,4183.586801709011,4179.480739299611,4171.293958648051,4145.642194247348,4148.710714122225,4130.7643653009845,4213.319925230792,4078.9813475242236,4169.736298008697
4175.886277561608,4206.6825314717325,4186.652607003892,4169.729807278554,4177.44462073701,4169.7579659723815,4170.2472295719845,4161.526624551766,4154.360121461814,4151.792563515679,4138.961735866331,4219.99239765011,4090.7648232242313,4175.374622568093
4183.071128404668,4211.290546272984,4189.2428793774325,4168.718423437858,4189.238923323414,4176.939006637675,4182.558575875487,4167.183023727779,4159.999098191805,4154.360771343557,4141.525522545205,4225.638335851072,4093.854393072404,4184.114025635156
4178.452295719844,4208.193960326543,4191.804370946823,4170.235499198901,4175.387474937056,4188.705959411002,4188.714249027237,4169.748494392309,4154.360121461814,4155.901696040284,4138.455725337606,4222.045466086824,4088.214131837949,4185.116394445716
4170.2410376134885,4203.585945525292,4183.601841763943,4171.788695811399,4168.210321812771,4186.146380560007,4187.193019455253,4175.373984283207,4176.397104142824,4161.03811169604,4137.4437042801555,4217.939329213397,4089.220038300145,4177.943192645152
4167.161815823605,4200.010126039521,4175.370531776914,4164.09495445182,4183.067485923552,4183.089105821317,4185.636412451362,4184.090402685588,4195.389731288624,4155.901696040284,4137.94971480888,4218.965863431754,4092.8125613794155,4170.268806439307
4168.701426718547,4201.5215548943315,4180.004241245137,4162.577878690777,4188.736065461204,4185.648684672313,4185.14112840467,4183.5958541237505,4182.555005111772,4154.874412909133,4142.065267109178,4216.399527885862,4091.267776455329,4171.803683680476
4168.1882230869,4202.553750209811,4181.011569390403,4169.224115358206,4184.1189159990845,4185.648684672313,4183.584521400779,4174.353977874418,4170.758127412832,4160.524470130465,4140.513501487754,4211.266856794079,4089.220038300145,4172.3048680857555
4169.214630350194,4200.526223697261,4177.442749675746,4170.7773119707035,4182.06177019913,4186.146380560007,4181.037346303502,4168.728487983521,4165.638074921797,4154.874412909133,4135.891938658732,4209.727055466545,4087.1723001449604,4167.700236362249
4171.267444876783,4202.553750209811,4183.083787289235,4170.235499198901,4173.833186999313,4180.493977264058,4172.299120622568,4170.243042954146,4153.841197222858,4151.278921950103,4139.501480430305,4213.319925230792,4092.3096081483177,4170.268806439307
4171.78064850843,4209.742253299763,4186.163333333334,4169.729807278554,4169.764609750515,4167.696083009079,4164.091556420233,4166.657565880827,4145.123270008392,4152.81984664683,4139.501480430305,4214.859726558328,4092.3096081483177,4172.837376516365
4175.373073929961,4217.962951705196,4183.083787289235,4173.847584344244,4181.010340123597,4174.343878080415,4173.855727626459,4172.31396505684,4161.036946669718,4152.81984664683,4140.007490959029,4211.780123903258,4088.214131837949,4174.372253757534
4183.584332036316,4215.898561074236,4187.1706614786,4182.047017624171,4187.684635385672,4189.239205004959,4186.167073929962,4189.221344014649,4188.193981841764,4160.010828564889,4149.7566271458,4216.912794995041,4093.3514398413063,4181.545455558098
4187.176757457846,4213.834170443275,4192.293644617381,4183.058401464867,4182.564628061341,4188.705959411002,4190.766140077822,4186.1613247882815,4179.476054627298,4173.844908064393,4151.7806692607,4223.585267414359,4097.4469161516745,4188.718657358663
4183.071128404668,4217.446854047455,4189.73215304799,4176.917856717785,4174.381759212634,4185.115439078356,4194.374638132296,4175.8994421301595,4162.559124437324,4175.899474326696,4148.204861524377,4221.018931868467,4093.3514398413063,4184.114025635156
4171.267444876783,4206.166433813993,4178.96813229572,4165.106338292516,4164.598888075074,4187.177322041658,4189.740194552529,4182.575847714961,4174.874926375219,4165.660885786221,4145.641074845503,4214.859726558328,4089.220038300145,4173.338560921645
4171.267444876783,4206.166433813993,4178.96813229572,4165.106338292516,4164.598888075074,4187.177322041658,4189.740194552529,4182.575847714961,4174.874926375219,4165.660885786221,4145.641074845503,4214.859726558328,4089.220038300145,4173.338560921645
4166.648612191958,4191.273329976349,4172.809040207523,4157.44871778439,4174.884617074845,4191.265538261998,4187.6883035019455,4189.221344014649,4191.272932326237,4169.222133974212,4147.192840466926,4214.346459449149,4091.267776455329,4173.338560921645
4176.399481193255,4201.042321355001,4182.047678339819,4168.21273151751,4202.0389416342405,4203.068040741589,4197.947758754864,4184.61586053254,4198.468681773098,4183.090456244755,4153.332434882124,4219.479130540932,4095.3991779964904,4184.615210040436
4176.399481193255,4209.742253299763,4184.609169909209,4174.353276264592,4198.473222247653,4203.068040741589,4194.374638132296,4184.61586053254,4197.430833295186,4170.763058670939,4151.7806692607,4215.886260776684,4091.80665491722,4185.648902876325
4170.754241245136,4201.5215548943315,4177.960804150454,4168.21273151751,4177.9474785992215,4189.239205004959,4181.037346303502,4188.201337605859,4184.111777828641,4143.608541237507,4146.653095902952,4209.727055466545,4087.1723001449604,4176.940823834592
4183.071128404668,4204.102043183032,4184.609169909209,4177.929240558481,4188.187493247882,4192.296479743649,4189.244910505837,4178.959461356527,4179.994978866254,4153.8471297779815,4151.7806692607,4214.346459449149,4095.902131227588,4184.615210040436
4190.769182879377,4210.258350957503,4192.811699092089,4188.729375143053,4204.598945296406,4200.508461890593,4198.478420233463,4169.223036545358,4186.152879835202,4184.117739375906,4158.966018768597,4218.965863431754,4104.0930838483255,4194.889490348668
4181.01831387808,4204.102043183032,4185.127224383918,4177.929240558481,4198.473222247653,4191.265538261998,4195.400583657588,4177.939454947737,4171.2770516517885,4174.8721911955445,4154.344455939574,4216.399527885862,4100.500560769055,4191.788411841001
4175.886277561608,4201.5215548943315,4183.601841763943,4171.788695811399,4196.918934309911,4182.5558602273595,4195.89586770428,4187.706789044022,4161.521275959411,4150.2516388189515,4147.192840466926,4212.293391012436,4088.717085069047,4187.183780117494
4173.833463035019,4196.91354009308,4185.645278858626,4172.294387731747,4202.0389416342405,4190.767842374305,4194.374638132296,4176.919448538949,4165.638074921797,4149.2243556878,4137.94971480888,4208.215768978408,4077.436562600137,4177.943192645152
4168.1882230869,4192.821622949569,4177.960804150454,4169.224115358206,4196.416076447699,4196.9179415579465,4191.29680155642,4169.223036545358,4164.081302204929,4157.442620737011,4137.94971480888,4209.242303196765,4086.166393682765,4174.372253757534
4171.267444876783,4200.010126039521,4179.4861867704285,4173.341892423896,4201.033225909819,4204.596678110934,4202.051540856031,4184.61586053254,4179.994978866254,4165.660885786221,4153.838445410849,4214.859726558328,4109.230391851682,4184.114025635156
4168.701426718547,4194.88601358053,4181.011569390403,4170.235499198901,4207.707521171893,4215.901484702831,4208.737875486381,4193.33227893492,4202.0319615472645,4177.954040588998,4163.081571068895,4214.346459449149,4115.373606317235,4184.615210040436
4153.850596627755,4172.325173113603,4172.809040207523,4158.965793545434,4193.353214923323,4211.777718776227,4195.400583657588,4194.877743190662,4205.110912031739,4191.274478522927,4164.093592126344,4211.266856794079,4114.367699855039,4173.338560921645
4155.390207522697,4170.260782482643,4171.283657587549,4164.09495445182,4193.353214923323,4206.658561074236,4191.29680155642,4206.159632257572,4208.708786755169,4198.979102006561,4173.842728313115,4212.806658121614,4131.791436789502,4176.940823834592
4167.675019455252,4186.149217517357,4175.888586251622,4176.412164797437,4214.884674296177,4216.399180590524,4208.737875486381,4210.765115739681,4219.986740215152,4205.142800793469,4187.16767223621,4217.939329213397,4143.574912489509,4188.718657358663
4162.061854734111,4184.600924544136,4172.809040207523,4172.800079652095,4221.558969558251,4223.082525368124,4222.039789883269,4210.270567177844,4221.54351293202,4207.711008621347,4184.603885557336,4217.4260621042185,4141.024221103227,4183.080332799267
4149.231763942931,4166.648098878462,4168.20411154345,4167.670918745709,4213.330386358434,4212.310964370185,4215.884116731518,4206.65418081941,4205.629836270695,4206.1700839246205,4176.406514991989,4215.372993667505,4140.521267872129,4170.769990844587
4144.099727626459,4153.8562497901885,4170.765603112841,4164.09495445182,4202.587513847562,4202.570344853895,4202.051540856031,4196.91775600824,4182.555005111772,4203.088234531167,4179.982322728313,4215.372993667505,4133.336221713588,4166.16535912108
4139.994098573281,4151.275761501488,4170.247548638133,4160.0132982375835,4194.861788509957,4205.129923704891,4197.452474708171,4199.48322667277,4186.671804074159,4198.979102006561,4183.591864499886,4213.833192339971,4125.648222323949,4165.1316662851905
4141.0205058365755,4151.275761501488,4169.7294941634245,4164.600646372168,4205.650375371938,4210.782327000839,4198.973704280156,4217.441521324483,4225.625716945144,4204.115517662318,4185.649640650035,4215.372993667505,4136.928744792859,4169.235113603418
4145.126134889753,4150.243566186007,4169.7294941634245,4170.235499198901,4223.570401007095,4204.0989822232405,4204.634093385214,4218.986985580224,4240.501545128557,4217.4359555962465,4192.834990157931,4217.939329213397,4150.257005416953,4171.803683680476
4139.994098573281,4142.059731898986,4166.649948119326,4166.153842984665,4221.558969558251,4195.887000076295,4198.973704280156,4191.786814679179,4219.467815976195,4222.572371252003,4190.777214007782,4213.319925230792,4141.5271743343255,4164.630481879911
4135.888469520103,4132.290740520333,4166.649948119326,4164.09495445182,4211.776098420691,4204.596678110934,4187.193019455253,4177.444906385901,4209.746635233081,4216.408672465095,4182.579843442435,4208.729036087587,4133.8391749446855,4161.529403372244
4143.586523994812,4139.479243610284,4169.7294941634245,4171.283003891051,4215.8903900206,4219.989700923172,4193.348692607004,4194.35228534371,4217.426713969634,4212.813181506065,4186.155651178759,4210.2403225757225,4146.664482337682,4167.167727931639
4151.28457846952,4151.791859159228,4169.7294941634245,4174.353276264592,4231.296126344701,4227.703987182422,4213.336941634241,4205.139625848783,4208.708786755169,4217.949597161822,4194.859032272831,4213.833192339971,4159.489789730678,4171.803683680476
4152.824189364461,4154.888445105669,4169.7294941634245,4172.800079652095,4237.421849393453,4231.792203402762,4226.674233463035,4204.088710154879,4189.231830319676,4225.140579079881,4199.480595101854,4219.479130540932,4166.674835889219,4175.907130998703
4153.337392996108,4152.824054474709,4177.960804150454,4176.412164797437,4229.2389805447465,4234.885027847716,4232.299245136187,4221.5524562447545,4213.3445099565115,4225.140579079881,4204.608168459602,4226.15160296025,4170.770312199588,4186.150087281605
4153.850596627755,4145.119453727017,4181.529623865111,4171.788695811399,4229.2389805447465,4235.382723735409,4234.88179766537,4236.419822384985,4252.817347066452,4213.840464637216,4204.102157930876,4230.257739833676,4170.770312199588,4189.219841763943
4150.771374837873,4134.871228809034,4177.442749675746,4160.0132982375835,4229.2389805447465,4232.8231448844135,4228.726124513619,4231.783429617762,4241.020469367513,4211.272256809339,4200.526350194553,4226.15160296025,4169.728480506599,4186.682595712215
4150.771374837873,4134.871228809034,4178.96813229572,4161.5303739986275,4220.004681620508,4227.703987182422,4222.5704513618675,4229.217958953231,4212.825585717555,4218.463238727398,4201.032360723278,4224.6118016327155,4170.26735896849,4188.718657358663
4155.390207522697,4141.027536583505,4183.601841763943,4170.7773119707035,4226.678976882581,4226.673045700771,4221.013844357977,4218.986985580224,4214.866687724117,4219.490521858549,4201.538371252002,4228.204671396963,4171.812143892576,4188.718657358663
4153.337392996108,4142.575829556726,4177.442749675746,4170.7773119707035,4241.536140993362,4232.289899290456,4218.466669260701,4204.088710154879,4217.945638208591,4213.840464637216,4199.986605630579,4223.07200030518,4169.728480506599,4184.114025635156
4150.258171206226,4142.059731898986,4171.283657587549,4172.294387731747,4233.353272144655,4226.673045700771,4218.466669260701,4216.4215149156935,4219.986740215152,4204.629159227893,4198.974584573129,4217.939329213397,4169.728480506599,4181.545455558098
4152.310985732814,4141.027536583505,4170.247548638133,4173.341892423896,4224.118973220417,4211.2800228885335,4213.832225680934,4222.572462653544,4235.900416876478,4203.088234531167,4197.422818951705,4218.965863431754,4168.722574044404,4180.511762722209
4154.3638002594025,4146.1516490424965,4170.765603112841,4172.800079652095,4237.421849393453,4214.372847333487,4215.3888326848255,4210.270567177844,4233.8593148699165,4213.326823071641,4199.480595101854,4221.532198977646,4167.680742351416,4185.648902876325
4161.548651102464,4157.432069275959,4178.96813229572,4180.493821011673,4236.416133669031,4230.263566033418,4226.674233463035,4224.117926909285,4234.862568398566,4216.408672465095,4207.677965667201,4226.664870069429,4177.452405127031,4196.925551995117
4168.1882230869,4153.8562497901885,4185.127224383918,4179.988129091325,4214.381816433966,4222.549279774167,4223.065735408561,4251.287188525215,4227.701413900969,4210.244973678187,4211.287507438773,4233.337342488746,4188.732927595941,4198.460429236286
4168.1882230869,4149.248234988937,4186.163333333334,4174.353276264592,4216.941820096132,4209.218139925231,4212.310996108949,4248.196260013733,4190.235083848325,4217.949597161822,4212.805539024948,4241.036349126421,4193.331357137407,4200.527814908064
4176.9126848249025,4163.072279392691,4197.445408560312,4182.552709544519,4244.599002517738,4225.6421042191205,4222.039789883269,4233.854351720454,4203.0698100251775,4227.7087869077595,4219.990888532845,4246.653772487984,4202.061188220035,4213.840525673304
4182.557924773021,4174.868797283894,4202.568391699093,4187.681870450904,4253.330443579766,4240.501881437401,4237.4289727626465,4237.934377355611,4251.77949858854,4212.813181506065,4219.990888532845,4246.653772487984,4208.707355916686,4218.97766582742
4173.320259403372,4170.260782482643,4192.811699092089,4181.035633783475,4243.090428931106,4232.8231448844135,4241.532754863813,4248.196260013733,4245.1372683299,4193.842686350805,4209.229731288624,4242.547635614557,4201.0193565270465,4210.770771190966
4173.833463035019,4167.164196536202,4193.329753566797,4185.117289997712,4244.599002517738,4232.289899290456,4245.636536964981,4247.176253604944,4232.302542153047,4200.520026703288,4212.2995284962235,4241.549616235599,4203.067094682231,4212.305648432135
4189.229571984435,4182.573398031586,4207.173320363165,4198.987696955825,4246.656148317693,4248.216167696652,4251.296926070039,4247.176253604944,4273.851076218814,4223.086012817578,4230.24603524834,4247.167039597161,4225.62813962005,4224.615990386816
4191.282386511024,4201.5215548943315,4207.691374837873,4206.645317463951,4243.593286793316,4247.1852262150005,4247.1931439688715,4261.023613336385,4279.490052948806,4237.433733882658,4238.477139848936,4245.113971160448,4239.495278706035,4230.786823376821
4183.071128404668,4193.337720607309,4201.532282749676,4202.057969329367,4247.707578393225,4230.263566033418,4241.532754863813,4268.194567483024,4246.140521858549,4237.433733882658,4234.867598077363,4237.956746471351,4232.310232547494,4224.615990386816
4184.61073929961,4181.5412027161065,4200.006900129702,4198.987696955825,4250.2675820553895,4235.880419623103,4245.636536964981,4264.609090409705,4258.975248035401,4231.783676661326,4232.303811398489,4234.877143816281,4226.669971313038,4217.4427885862515
4181.531517509728,4198.977930724041,4192.811699092089,4209.209897917144,4249.764724193179,4247.682922102694,4251.296926070039,4260.498155489433,4265.652073243305,4229.763353170062,4231.797800869765,4233.850609597925,4228.214756237125,4216.409095750362
4175.886277561608,4212.801975127794,4186.163333333334,4216.397947356375,4250.2675820553895,4235.880419623103,4243.584645914397,4252.307194934005,4238.979367360952,4227.7087869077595,4232.809821927214,4235.39041092546,4223.077448233768,4217.943972991531
4178.452295719844,4204.618140840772,4187.688715953308,4215.892255436027,4247.707578393225,4230.263566033418,4233.855852140078,4246.681705043106,4238.979367360952,4209.731332112611,4231.797800869765,4232.310808270389,4213.844663920043,4214.874218509193
4175.373073929961,4198.461833066301,4184.091115434501,4212.316291142139,4242.038998855573,4236.911361104753,4231.273299610895,4234.874358129244,4253.336271305409,4201.547309834439,4221.036643625544,4224.098534523537,4210.75509407187,4210.269586785686
4179.991906614786,4202.553750209811,4188.724824902724,4214.33905882353,4241.033283131151,4234.351782253758,4227.700178988327,4230.268874647135,4247.178370336461,4232.297318226902,4226.164216983291,4230.771006942855,4227.675877775235,4222.047420309758
4197.954033722438,4210.774448615244,4205.647937743191,4222.57461295491,4250.2675820553895,4234.885027847716,4229.7520700389105,4252.832652780957,4244.6183440909435,4251.267813382162,4244.110723735408,4241.549616235599,4242.548923323415,4239.494902418554
4201.033255512321,4217.962951705196,4209.734811932555,4224.597380636302,4259.501880979629,4246.651980621043,4242.558700389105,4272.830960250248,4250.257320820935,4228.222428473335,4240.501181963836,4240.009814908064,4235.3998023956665,4238.962393987945
4192.821997405966,4214.350268101015,4200.496173800259,4218.962527809568,4247.707578393225,4247.1852262150005,4245.636536964981,4263.063626153964,4246.140521858549,4220.004163424124,4233.855577019913,4236.416945143816,4226.669971313038,4229.753130540932
4193.84840466926,4213.318072785534,4199.488845654994,4215.386563515679,4232.301842069123,4233.854086366065,4232.8299066147865,4252.832652780957,4254.339524834058,4237.433733882658,4241.546937056534,4236.930212252994,4231.268400854505,4230.786823376821
4193.335201037613,4216.9307563897155,4202.050337224384,4221.0214163424125,4244.0961446555275,4232.8231448844135,4229.221408560312,4250.267182116427,4263.576376287479,4234.351884489204,4241.546937056534,4233.850609597925,4234.357970702677,4231.288007782101
4190.769182879377,4205.650336156253,4198.970791180286,4221.5271082627605,4248.713294117647,4242.066068513009,4233.855852140078,4234.348900282292,4262.573122758831,4221.545088120852,4229.740024719616,4230.771006942855,4227.675877775235,4227.184560463874
4199.49364461738,4205.650336156253,4197.445408560312,4216.903639276723,4236.918991531243,4233.854086366065,4230.778015564202,4230.763423208972,4248.700548104066,4237.433733882658,4231.291790341039,4235.903678034638,4229.220662699321,4230.786823376821
4203.08607003891,4228.211176623178,4199.488845654994,4223.080304875258,4243.593286793316,4224.611162737469,4235.907743190662,4242.570770122835,4228.704667429617,4258.458795300221,4242.558958113985,4238.9832806897075,4239.998231937133,4231.789192187381
4199.49364461738,4239.491596856642,4197.445408560312,4236.408899061571,4248.2104362554355,4242.066068513009,4251.792210116731,4256.418129854276,4253.855195544365,4254.349662775616,4247.686531471732,4235.903678034638,4245.135539940489,4230.254314946212
4198.467237354085,4233.33528908217,4189.73215304799,4236.914590981918,4241.033283131151,4256.392600137332,4248.714373540856,4266.154554665446,4287.689055924315,4244.624715800717,4244.616734264134,4231.7975411612115,4242.045970092317,4233.32406942855
4200.006848249027,4232.30309376669,4188.724824902724,4229.726541542687,4246.1532904554815,4248.713863584345,4235.377081712062,4254.3472077515835,4268.731023727779,4255.376945906767,4244.110723735408,4228.717938506142,4243.590755016403,4232.32170061799
4202.572866407263,4244.099611657893,4196.409299610896,4236.914590981918,4252.3247278553445,4248.713863584345,4244.6105914396885,4243.590776531624,4258.456323796444,4270.272551308461,4252.308094300755,4234.3638767071025,4254.368324254216,4234.357762264439
4201.546459143969,4250.772017090105,4198.970791180286,4244.10264042115,4249.764724193179,4253.833021286336,4263.077610894942,4253.852659189746,4284.610105439841,4259.999719996948,4252.81410482948,4240.523082017243,4261.5533704127565,4239.996086823834
4201.033255512321,4240.007694514382,4196.927354085604,4236.914590981918,4245.65043259327,4250.775746547647,4261.025719844358,4261.549071183337,4276.411102464332,4242.0565079728385,4250.756328679332,4238.9832806897075,4259.505632257572,4238.461209582665
4203.08607003891,4225.630688334478,4195.373190661479,4226.656269169147,4231.798984206912,4250.242500953689,4248.714373540856,4246.681705043106,4244.6183440909435,4240.515583276112,4246.674510414283,4235.39041092546,4251.278754406043,4232.82288502327
4203.5992736705575,4233.33528908217,4196.409299610896,4228.209465781644,4229.2389805447465,4247.1852262150005,4240.506809338522,4232.308887464714,4238.979367360952,4249.761131456474,4235.373608606088,4234.3638767071025,4245.135539940489,4230.786823376821
4209.212438391699,4251.804212405585,4200.496173800259,4241.0323680476085,4244.599002517738,4242.563764400702,4243.089361867705,4242.045312275883,4252.817347066452,4251.267813382162,4235.879619134814,4236.930212252994,4248.189184557869,4234.8902706950485
4216.397289234759,4249.739821774624,4201.0142282749675,4241.0323680476085,4243.090428931106,4243.594705882353,4248.219089494163,4249.2162664225225,4262.573122758831,4244.111074235141,4246.168499885557,4238.9832806897075,4250.775801174945,4241.029779659723
4216.9104928664065,4238.975499198901,4198.452736705578,4231.2797381551845,4229.741838406958,4246.154284733349,4238.454918287938,4233.854351720454,4260.013096513313,4247.192923628595,4246.674510414283,4237.956746471351,4250.775801174945,4242.063472495613
4215.884085603112,4243.583514000153,4201.0142282749675,4231.7854300755325,4229.741838406958,4251.27344243534,4230.778015564202,4226.157939726863,4259.494172274357,4254.863304341192,4239.489160906386,4234.3638767071025,4250.775801174945,4236.425147936217
4216.397289234759,4245.131806973373,4200.496173800259,4236.408899061571,4234.358987869077,4246.651980621043,4233.325190661479,4242.045312275883,4252.817347066452,4246.67928206302,4232.809821927214,4229.23120561532,4246.6803248645765,4230.254314946212
4214.34447470817,4229.759469596399,4197.445408560312,4231.2797381551845,4235.364703593499,4233.320840772107,4235.907743190662,4235.894364538033,4232.821466392004,4232.297318226902,4228.188259098192,4231.7975411612115,4243.087801785306,4231.288007782101
4216.9104928664065,4231.786996108949,4202.050337224384,4227.161961089495,4233.856130006866,4236.41366521706,4236.403027237354,4211.785122148471,4224.622463416495,4230.756393530175,4231.797800869765,4236.930212252994,4251.78170763714,4233.856577859159
4219.98971465629,4250.772017090105,4204.093774319066,4230.7740462348365,4229.741838406958,4247.682922102694,4237.959634241245,4223.067011215381,4231.783617914091,4229.249711604486,4228.188259098192,4235.39041092546,4249.733969481956,4232.32170061799
4212.8048638132295,4250.255919432365,4197.934682230869,4229.726541542687,4228.187550469214,4245.656588845655,4236.933688715953,4235.399815976196,4235.900416876478,4221.031446555276,4211.793517967499,4234.877143816281,4229.759541161211,4227.184560463874
4209.212438391699,4243.067416342413,4198.452736705578,4229.220849622339,4233.856130006866,4237.942302586404,4226.674233463035,4227.703403982605,4244.0994198519875,4220.5178049897,4213.851294117647,4238.47001358053,4229.759541161211,4228.218253299763
4217.423696498054,4262.052437323568,4203.086446173801,4237.420282902266,4242.038998855573,4241.035127031358,4216.910062256809,4230.763423208972,4251.77949858854,4221.545088120852,4225.6244724193175,4240.523082017243,4248.189184557869,4234.357762264439
4217.423696498054,4268.72484275578,4194.855136186771,4238.467787594415,4243.090428931106,4241.532822919052,4214.858171206226,4229.217958953231,4247.697294575418,4226.167862211032,4221.542654154268,4234.877143816281,4245.6384931715875,4231.789192187381
4206.646420233463,4247.196197604334,4187.1706614786,4225.644885328451,4233.856130006866,4232.8231448844135,4213.832225680934,4218.986985580224,4241.020469367513,4228.736070038911,4210.781496910048,4229.744472724498,4232.813185778591,4223.081113145647
4216.397289234759,4257.960520180057,4198.970791180286,4229.220849622339,4230.244696269168,4227.703987182422,4216.910062256809,4230.763423208972,4230.261440146486,4214.867747768368,4213.345283588922,4236.930212252994,4244.632586709392,4230.254314946212
4246.163099870298,4284.097180132753,4217.937341115435,4247.678604715038,4245.14757473106,4232.8231448844135,4230.247354085604,4244.610782940414,4230.261440146486,4211.272256809339,4223.600430304417,4246.140505378805,4266.654753185321,4256.911060502021
4263.066744487678,4271.784564583811,4226.139870298314,4244.10264042115,4246.1532904554815,4237.942302586404,4231.273299610895,4232.308887464714,4237.941518883039,4223.599654383154,4228.728003662165,4247.68030670634,4282.066677195392,4282.064252841992
4273.330817120622,4273.33285755703,4229.219416342413,4241.5380599679565,4232.301842069123,4233.854086366065,4213.336941634241,4216.916063477531,4221.54351293202,4209.217690547036,4229.740024719616,4249.220108033875,4296.400844281681,4296.911840848401
4297.419312581063,4332.831544670787,4239.983437094683,4269.748444953079,4234.861845731289,4231.792203402762,4210.259105058366,4213.330586404211,4207.186608987564,4186.172305638209,4237.937395284962,4254.866046234836,4308.220245212482,4311.28956847486
4320.513476005188,4377.953225604639,4250.776238651103,4289.723275806821,4227.684692607004,4229.232624551767,4219.987898832685,4222.572462653544,4223.5846149385825,4201.547309834439,4254.365870450904,4264.618121309224,4327.18876707103,4337.445129625391
4330.264345006484,4364.092317082475,4250.258184176395,4281.018150606546,4214.381816433966,4219.989700923172,4216.910062256809,4237.934377355611,4233.8593148699165,4221.545088120852,4261.551219958801,4267.184456855115,4354.887120012207,4362.566997940032
4339.9831387808035,4348.719979705501,4243.58103761349,4274.877605859465,4223.570401007095,4210.782327000839,4210.259105058366,4218.986985580224,4213.3445099565115,4196.4108941786835,4256.929657129778,4258.9721831082625,4364.119904325933,4371.275076981765
4351.273618677043,4363.060121766995,4245.135201037614,4283.077039139392,4238.976137331197,4213.341905851836,4210.754389105058,4197.937762417029,4204.10765850309,4179.494965285725,4262.057230487526,4255.379313344014,4365.125810788129,4384.117927367056
4357.945265888457,4386.653157549401,4252.819675745785,4291.782164339666,4231.296126344701,4220.522946517129,4213.832225680934,4225.137933318074,4235.381492637522,4215.381389333944,4275.38217441062,4264.618121309224,4395.374855115587,4405.13634836347
4357.432062256808,4399.481870756084,4253.3377302204935,4296.405633325704,4220.507539482719,4218.958759441521,4212.8062801556425,4237.934377355611,4238.979367360952,4236.406450751507,4283.073534447242,4269.237525291828,4412.295638818951,4405.13634836347
4359.484876783397,4396.4221489280535,4252.819675745785,4299.475905699245,4226.176119020371,4215.901484702831,4216.414778210117,4206.65418081941,4197.949757534142,4211.785898374914,4279.497726710918,4262.565052872511,4391.782332036317,4393.327190814069
4358.458469520103,4384.109533379111,4256.417276264592,4295.394249485008,4230.79326848249,4219.492005035478,4224.622342412452,4207.705096513313,4181.551751583123,4195.383611047532,4267.184803845274,4258.458915999085,4386.142070801861,4391.29112916762
4349.734007782101,4375.372737315938,4261.022204928664,4290.7707804989705,4222.564685282673,4216.932426184482,4222.039789883269,4235.399815976196,4205.629836270695,4198.465460440986,4261.011475394827,4262.565052872511,4396.919640039673,4390.7586207370105
4348.194396887159,4375.372737315938,4264.101750972763,4291.276472419318,4216.39324788281,4212.808660257878,4217.936007782101,4236.419822384985,4234.862568398566,4205.142800793469,4269.242579995423,4264.104854200045,4389.231640650034,4388.722559090562
4349.220804150454,4367.188903028916,4266.663242542153,4289.217583886473,4228.187550469214,4220.522946517129,4228.195463035019,4232.308887464714,4241.020469367513,4224.1132959487295,4280.003737239643,4266.671189745937,4381.040688029298,4387.187681849393
4349.220804150454,4367.188903028916,4266.663242542153,4289.217583886473,4228.187550469214,4220.522946517129,4228.195463035019,4232.308887464714,4241.020469367513,4224.1132959487295,4280.003737239643,4266.671189745937,4381.040688029298,4387.187681849393
4338.956731517509,4347.687784390021,4268.706679636835,4279.501074845502,4231.296126344701,4226.673045700771,4235.907743190662,4233.328893873503,4229.74251590753,4237.947375448233,4282.567523918517,4270.7773266193635,4388.189808957046,4378.47960280766
4321.539883268482,4329.218861066605,4260.504150453956,4270.254136873426,4215.8903900206,4217.963367666133,4221.544505836576,4216.916063477531,4223.5846149385825,4229.763353170062,4279.497726710918,4269.750792401007,4378.992949874113,4362.065813534752
4309.222996108949,4312.814328374151,4251.265512321661,4262.560395513848,4205.650375371938,4210.249081406882,4203.077486381323,4211.785122148471,4238.460443121996,4220.5178049897,4268.702835431449,4264.618121309224,4355.893026474403,4349.222963149462
4296.906108949416,4295.377600366217,4248.214747081713,4250.748877088579,4200.530368047608,4214.372847333487,4206.155322957198,4225.137933318074,4245.621597619593,4207.711008621347,4252.308094300755,4256.919114671549,4343.6065975432975,4335.3777439536125
4277.4364461738,4281.037458304722,4239.494163424125,4239.479171435111,4195.913218585489,4212.310964370185,4214.362887159533,4216.4215149156935,4230.780364385442,4194.356327916381,4238.98315037766,4250.246642252231,4333.331981536583,4318.963954680705
4263.066744487678,4277.940872358282,4228.701361867705,4232.2911219958805,4201.53608377203,4206.160865186542,4213.336941634241,4205.63417441062,4220.505664454108,4197.95181887541,4229.740024719616,4246.140505378805,4312.31572152285,4304.116366674296
4262.040337224384,4280.521360646982,4228.701361867705,4232.832934767682,4213.833244220645,4212.310964370185,4214.858171206226,4218.461527733272,4214.866687724117,4208.224650186923,4229.234014190891,4247.167039597161,4304.08884367132,4298.4780421149
4261.527133592736,4274.365052872511,4231.291634241245,4235.397515220875,4214.381816433966,4216.932426184482,4222.5704513618675,4222.572462653544,4209.746635233081,4204.115517662318,4231.291790341039,4248.193573815518,4310.770936598764,4299.480410925459
4250.236653696497,4260.504144350347,4228.701361867705,4229.726541542687,4206.656091096361,4213.839601739529,4217.440723735409,4217.441521324483,4209.227710994125,4194.869969481956,4228.188259098192,4246.140505378805,4301.538152285038,4292.307209124895
4244.110285343709,4257.444422522316,4227.1759792477305,4221.5271082627605,4205.147517509728,4219.492005035478,4213.336941634241,4229.743416800183,4230.261440146486,4198.465460440986,4228.188259098192,4248.193573815518,4294.856059357595,4284.63282291905
